Time,Fp1,F3,C3,P3,O1,F7,T3,T5,Fz,Fp2,F4,C4,P4,O2,F8,T4,T6,Cz,Pz
0.0000,1.9258,4.7405,4.2435,0.9614,-2.6311,0.0837,1.2770,-1.0644,8.2630,1.5301,4.0382,1.3292,0.7547,-2.7882,1.2704,-0.0725,-0.2654,4.9616,2.1641
3.9062,2.3392,5.0332,4.3012,0.9649,-2.6318,0.9072,1.6571,-0.9987,8.3895,1.9167,4.2489,1.4203,0.1397,-2.7601,0.8312,-1.0851,-0.5049,4.9077,1.4547
7.8125,2.2122,4.5716,3.9659,1.3806,-2.0355,1.7902,2.2410,-0.2028,7.9374,2.0320,3.8556,1.2876,-0.5580,-2.7423,-0.3142,-2.4317,-1.0650,4.8320,0.7139
11.7188,1.1852,3.0630,3.1405,2.0736,-0.9088,2.2600,2.8704,1.2770,6.6104,1.4957,2.5463,0.6773,-1.1960,-2.7824,-2.0609,-3.7925,-1.9500,4.5082,0.1213
15.6250,-0.7410,0.6811,1.8579,2.5934,0.2892,1.8980,3.2301,2.8866,4.4282,0.0922,0.3634,-0.4857,-1.6977,-2.8866,-3.9758,-4.7985,-2.9591,3.6497,-0.2913
19.5312,-3.1543,-1.9899,0.2415,2.3949,0.9082,0.5743,2.9847,3.8008,1.7585,-2.0940,-2.2834,-2.0223,-2.1026,-3.0267,-5.5371,-5.2354,-3.7506,2.0789,-0.6881
23.4375,-5.4091,-4.2763,-1.5436,1.1839,0.4778,-1.4476,1.9939,3.3918,-0.8530,-4.6716,-4.8084,-3.5813,-2.5440,-3.1777,-6.4417,-5.1649,-4.0245,-0.1180,-1.3381
27.3438,-6.9245,-5.7948,-3.3093,-0.8393,-0.9770,-3.6014,0.4717,1.6362,-2.9533,-7.0639,-6.7200,-4.8307,-3.1617,-3.3490,-6.7551,-4.8618,-3.7134,-2.5619,-2.4325
31.2500,-7.4288,-6.6402,-4.8448,-3.0337,-2.8962,-5.2655,-1.0429,-0.8188,-4.3834,-8.7038,-7.8117,-5.6325,-4.0052,-3.5802,-6.7934,-4.6054,-3.0494,-4.7286,-3.9343
35.1562,-7.0269,-7.2627,-5.9512,-4.6756,-4.4721,-6.0404,-1.9288,-2.9961,-5.2991,-9.2341,-8.1879,-6.1005,-5.0002,-3.9079,-6.8383,-4.4802,-2.4532,-6.2179,-5.5785
39.0625,-6.0908,-8.1319,-6.5333,-5.4091,-5.1068,-5.9130,-1.8170,-4.1303,-6.0244,-8.6510,-8.1639,-6.5185,-6.0087,-4.3398,-6.9189,-4.3519,-2.3110,-6.9985,-7.0373
42.9688,-5.0753,-9.4294,-6.7029,-5.4883,-4.7559,-5.2320,-0.8133,-4.0691,-6.8587,-7.3430,-8.1316,-7.1873,-6.9434,-4.8589,-6.8432,-4.0572,-2.7811,-7.4667,-8.1411
46.8750,-4.3688,-10.9669,-6.7927,-5.6172,-3.9356,-4.5155,0.5441,-3.2864,-7.9591,-5.9884,-8.4575,-8.2875,-7.8442,-5.4460,-6.4475,-3.6647,-3.7429,-8.2469,-8.9865
50.7812,-4.2181,-12.3549,-7.2072,-6.4566,-3.3773,-4.1908,1.5824,-2.5192,-9.3326,-5.3110,-9.3990,-9.8057,-8.8345,-6.0724,-5.8433,-3.5783,-4.8979,-9.8084,-9.8295
54.6875,-4.6972,-13.2616,-8.1541,-8.1018,-3.5369,-4.3922,1.8701,-2.2809,-10.8805,-5.7584,-11.0017,-11.5177,-9.9598,-6.6418,-5.4233,-4.3418,-5.9264,-12.1069,-10.8131
58.5938,-5.6761,-13.5641,-9.4182,-9.8853,-4.2657,-4.9048,1.4382,-2.5674,-12.4158,-7.2445,-12.9908,-13.0092,-11.0116,-6.9196,-5.5819,-6.2252,-6.5886,-14.4754,-11.7188
62.5000,-6.8024,-13.3057,-10.3619,-10.6711,-4.8535,-5.2700,0.7165,-2.9218,-13.6473,-9.1176,-14.7502,-13.7425,-11.4886,-6.5372,-6.3500,-8.8659,-6.7331,-15.8752,-11.9474
66.4062,-7.5591,-12.5446,-10.2163,-9.4971,-4.4278,-5.0019,0.2368,-2.7779,-14.1989,-10.4315,-15.4945,-13.2018,-10.7839,-5.1391,-7.2515,-11.2551,-6.2673,-15.4142,-10.8027
70.3125,-7.4463,-11.2649,-8.5344,-6.1888,-2.4803,-3.8198,0.3043,-1.8343,-13.7419,-10.4268,-14.6305,-11.1186,-8.5424,-2.6333,-7.5429,-12.1609,-5.1775,-12.8624,-7.9436
74.2188,-6.2394,-9.4484,-5.5370,-1.5662,0.7864,-1.7954,0.8419,-0.2235,-12.2181,-8.9719,-12.1397,-7.6959,-4.9913,0.6057,-6.7125,-10.7878,-3.6144,-8.8709,-3.7333
78.1250,-4.1805,-7.2478,-2.1159,2.8935,4.4911,0.6492,1.4846,1.5935,-10.0165,-6.6909,-8.7309,-3.6832,-1.0117,3.7594,-4.8937,-7.2865,-1.9652,-4.7406,0.7605
82.0312,-1.9489,-5.0880,0.5495,5.7542,7.4676,2.8994,1.8349,3.0969,-7.9322,-4.6576,-5.6000,-0.1874,2.1569,5.8803,-2.8791,-2.7879,-0.7901,-1.8408,4.1678
85.9375,-0.3704,-3.5588,1.5625,6.2850,8.8078,4.3990,1.6992,3.9469,-6.8545,-3.8017,-3.8749,1.7591,3.4722,6.3677,-1.6887,1.0945,-0.5868,-0.9849,5.4286
89.8438,0.0042,-3.1237,0.7482,4.7327,8.2681,4.8827,1.1689,4.0682,-7.3179,-4.3707,-4.0468,1.6772,2.6140,5.3291,-1.9633,3.0298,-1.4888,-2.0972,4.2883
93.7500,-0.7899,-3.8300,-1.2861,2.0885,6.3448,4.4819,0.5289,3.5821,-9.1823,-5.7819,-5.7301,-0.1029,0.1742,3.5749,-3.5792,2.5826,-3.1020,-4.3413,1.4049
97.6562,-2.1284,-5.2282,-3.4884,-0.4703,4.0022,3.6459,0.0853,2.6927,-11.6593,-6.9692,-7.9040,-2.5825,-2.6229,2.2056,-5.7325,0.3539,-4.6359,-6.6091,-1.9860
101.5625,-3.1213,-6.5805,-4.8906,-2.1255,2.2152,2.9172,0.0294,1.6220,-13.6975,-7.0165,-9.4833,-4.5811,-4.5295,2.0113,-7.4209,-2.3937,-5.2997,-8.0733,-4.6549
105.4688,-3.0802,-7.2348,-5.0339,-2.6706,1.5590,2.6741,0.3926,0.6108,-14.5070,-5.6862,-9.8663,-5.3035,-4.8806,3.0425,-7.9952,-4.3833,-4.7438,-8.4969,-5.8943
109.3750,-1.8591,-6.9318,-4.0875,-2.4025,2.0327,2.9748,1.0740,-0.0786,-13.9190,-3.5209,-9.1391,-4.6728,-3.8602,4.6180,-7.4375,-4.8862,-3.2694,-8.1750,-5.7175
113.2812,0.1153,-5.8650,-2.6546,-1.8036,3.1633,3.5820,1.8915,-0.2265,-12.3878,-1.4758,-7.8694,-3.2589,-2.3024,5.7573,-6.2366,-3.9376,-1.6619,-7.6213,-4.6898
117.1875,2.1129,-4.4888,-1.4251,-1.2535,4.2928,4.1388,2.6281,0.2164,-10.6796,-0.3382,-6.6861,-1.8884,-1.1753,5.7560,-5.0085,-2.1652,-0.7497,-7.2457,-3.5482
121.0938,3.4830,-3.2380,-0.8778,-0.9294,4.8791,4.3822,3.0834,1.0209,-9.4749,-0.3095,-5.9545,-1.1973,-1.0710,4.5408,-4.1473,-0.3926,-0.9634,-7.2242,-2.8512
125.0000,3.9208,-2.3533,-1.1588,-0.8885,4.6700,4.2649,3.1404,1.7040,-9.1222,-0.9915,-5.7275,-1.3915,-1.9898,2.6070,-3.7156,0.7431,-2.1617,-7.5816,-2.8293
128.9062,3.4955,-1.8972,-2.1334,-1.1971,3.7075,3.9211,2.8251,1.7275,-9.6320,-1.7381,-5.9227,-2.3000,-3.4912,0.6357,-3.5782,0.9893,-3.7995,-8.3411,-3.4474
132.8125,2.4829,-1.8894,-3.5238,-1.9631,2.2297,3.5223,2.3086,0.7964,-10.8213,-2.1024,-6.5107,-3.6056,-5.0466,-0.9064,-3.6164,0.4562,-5.2818,-9.5681,-4.5556
136.7188,1.1565,-2.4037,-5.0350,-3.2313,0.5721,3.1369,1.8216,-0.9085,-12.4458,-2.0804,-7.5356,-5.0441,-6.3245,-1.9057,-3.8415,-0.5431,-6.2465,-11.2516,-5.9850
140.6250,-0.3165,-3.5225,-6.4163,-4.8318,-0.8704,2.7009,1.5201,-2.7246,-14.2302,-2.0211,-8.9625,-6.4398,-7.2325,-2.4254,-4.3449,-1.6714,-6.6107,-13.1374,-7.5267
144.5312,-1.8373,-5.1825,-7.4672,-6.3244,-1.6508,2.1155,1.3945,-3.7742,-15.8401,-2.3094,-10.5190,-7.6118,-7.7466,-2.4182,-5.1597,-2.6766,-6.4142,-14.6901,-8.8601
148.4375,-3.2688,-7.0500,-8.0226,-7.1289,-1.3313,1.3932,1.3043,-3.3954,-16.9067,-3.0615,-11.7090,-8.2984,-7.7232,-1.6139,-6.1621,-3.4142,-5.6510,-15.2838,-9.5495
152.3438,-4.3793,-8.5598,-7.9552,-6.7988,0.3455,0.7284,1.1244,-1.5160,-17.1578,-4.0315,-12.0391,-8.2204,-6.8928,0.2804,-7.0867,-3.8174,-4.2616,-14.5374,-9.1857
156.2500,-4.9020,-9.1366,-7.2107,-5.2903,3.2303,0.4225,0.8929,1.2419,-16.5829,-4.7626,-11.3105,-7.2687,-5.0738,3.2013,-7.6364,-3.8686,-2.2982,-12.5822,-7.6246
160.1562,-4.6801,-8.4816,-5.8664,-3.0579,6.6393,0.6999,0.8270,3.8077,-15.4920,-4.8575,-9.7654,-5.6667,-2.4505,6.4841,-7.6078,-3.5990,-0.1043,-10.0659,-5.1770
164.0625,-3.7958,-6.7508,-4.1798,-0.9002,9.4839,1.5369,1.1636,5.1501,-14.3794,-4.1903,-7.9702,-3.9486,0.3250,9.0064,-6.9668,-3.1083,1.6907,-7.8652,-2.5919
167.9688,-2.5835,-4.5095,-2.5794,0.3805,10.6835,2.6307,1.9280,4.7602,-13.6524,-2.9481,-6.5061,-2.7186,2.3415,9.7125,-5.8543,-2.5628,2.4294,-6.6659,-0.7889
171.8750,-1.4978,-2.4812,-1.5595,0.3348,9.6956,3.5460,2.8133,2.8783,-13.4014,-1.5094,-5.6674,-2.3214,2.8722,8.2221,-4.5339,-2.1411,1.8030,-6.6578,-0.4469
175.7812,-0.8985,-1.2297,-1.4907,-0.9399,6.8663,3.9563,3.2967,0.3497,-13.3741,-0.2521,-5.3508,-2.6374,1.7909,5.1347,-3.2987,-1.9317,0.0962,-7.5076,-1.6658
179.6875,-0.8695,-0.9396,-2.4224,-2.8602,3.3592,3.8279,2.9485,-1.8013,-13.1770,0.6042,-5.1799,-3.1465,-0.3083,1.8065,-2.3520,-1.8450,-1.8873,-8.5969,-3.8962
183.5938,-1.1781,-1.4013,-3.9964,-4.6344,0.6407,3.4226,1.7294,-2.8425,-12.5623,1.0572,-4.7586,-3.2309,-2.3855,-0.2963,-1.7007,-1.6154,-3.2033,-9.3576,-6.1922
187.5000,-1.4103,-2.1869,-5.5616,-5.6121,-0.2260,3.1130,0.0559,-2.6061,-11.6049,1.2719,-3.8924,-2.5339,-3.4783,-0.3016,-1.1296,-0.9346,-3.2322,-9.5150,-7.6611
191.4062,-1.2196,-2.9097,-6.4754,-5.5425,0.9078,3.1241,-1.4356,-1.4509,-10.6574,1.4540,-2.6725,-1.1587,-3.1755,1.6988,-0.3104,0.3367,-1.9627,-9.1350,-7.8726
195.3125,-0.5585,-3.4250,-6.4460,-4.6331,3.2519,3.3654,-2.2795,0.0076,-10.1325,1.7080,-1.4166,0.4008,-1.7752,4.7930,0.9752,2.0048,0.0564,-8.5100,-7.0113
199.2188,0.2446,-3.8689,-5.7151,-3.4035,5.5493,3.4667,-2.4573,1.2113,-10.2734,1.9516,-0.5282,1.5401,-0.0626,7.7736,2.6247,3.5629,2.0388,-7.9863,-5.7102
203.1250,0.6292,-4.5234,-4.9436,-2.4215,6.7650,3.0020,-2.3658,1.8425,-11.0532,1.9494,-0.3365,1.8591,1.1395,9.7176,4.1810,4.4278,3.3468,-7.8265,-4.6754
207.0312,0.1100,-5.5871,-4.8418,-2.0483,6.5934,1.7706,-2.4987,1.8321,-12.2344,1.4686,-0.9570,1.3417,1.3775,10.3147,5.0572,4.2845,3.7321,-8.1392,-4.3251
210.9375,-1.4107,-6.9897,-5.7505,-2.3029,5.5153,-0.0330,-3.0761,1.2710,-13.5100,0.4809,-2.2041,0.3248,0.7235,9.8326,4.9186,3.3296,3.3434,-8.8625,-4.6321
214.8438,-3.5139,-8.3699,-7.4304,-2.8950,4.4178,-1.8688,-3.8904,0.3378,-14.6190,-0.7282,-3.6063,-0.6927,-0.3559,8.8299,3.9716,2.2354,2.5633,-9.7896,-5.2298
218.7500,-5.4188,-9.2481,-9.1938,-3.3990,4.0410,-3.1018,-4.4801,-0.7137,-15.3921,-1.6533,-4.5641,-1.2823,-1.2927,7.8303,2.9265,1.8187,1.8091,-10.6395,-5.6798
222.6562,-6.3626,-9.3082,-10.3006,-3.4834,4.5801,-3.3232,-4.4998,-1.5621,-15.7541,-1.8576,-4.6269,-1.2491,-1.6878,7.1233,2.5992,2.5898,1.3989,-11.1690,-5.7245
226.5625,-6.0024,-8.6185,-10.3685,-3.0869,5.6422,-2.5658,-4.0091,-1.9052,-15.7278,-1.2907,-3.7595,-0.6711,-1.4339,6.7329,3.3813,4.4478,1.4998,-11.2832,-5.3838
230.4688,-4.6010,-7.6374,-9.5470,-2.4519,6.5202,-1.2954,-3.4614,-1.6316,-15.4422,-0.4068,-2.4217,0.1743,-0.6840,6.4926,4.9365,6.7112,2.1156,-11.0716,-4.8696
234.3750,-2.8741,-6.9724,-8.3617,-1.9958,6.5871,-0.1714,-3.3952,-0.9687,-15.1018,0.0522,-1.3583,0.9472,0.2606,6.1522,6.3589,8.4703,3.0784,-10.7240,-4.4108
238.2812,-1.5771,-7.0204,-7.3570,-2.0802,5.5859,0.3041,-4.0451,-0.4562,-14.8892,-0.4779,-1.1751,1.3885,1.0632,5.4808,6.7235,9.0502,4.0583,-10.3665,-4.1186
242.1875,-1.0772,-7.7100,-6.7823,-2.7970,3.7006,0.0642,-5.1525,-0.6836,-14.8419,-1.9549,-1.9507,1.4150,1.4310,4.3655,5.6771,8.3158,4.6298,-9.9356,-3.9719
246.0938,-1.1743,-8.5241,-6.5193,-3.8968,1.4290,-0.4704,-6.1133,-1.9135,-14.8006,-3.6483,-3.1521,1.1319,1.1746,2.8943,3.6721,6.6624,4.4154,-9.2083,-3.9035
250.0000,-1.2810,-8.8041,-6.2665,-4.9080,-0.6428,-0.6099,-6.3657,-3.8322,-14.5008,-4.5086,-3.9448,0.7567,0.2636,1.3751,1.6807,4.7379,3.2566,-7.9987,-3.9009
253.9062,-0.8417,-8.1548,-5.8218,-5.3906,-2.0569,0.2170,-5.7562,-5.6286,-13.7751,-3.7913,-3.7238,0.4922,-1.1337,0.2424,0.5856,3.0941,1.3254,-6.3878,-4.0312
257.8125,0.2876,-6.6903,-5.2536,-5.1769,-2.6204,2.1111,-4.6413,-6.4017,-12.7226,-1.5373,-2.5173,0.4154,-2.6666,-0.1351,0.6618,1.9778,-0.9009,-4.7940,-4.3717
261.7188,1.7499,-4.9639,-4.8485,-4.4510,-2.4301,4.5861,-3.6582,-5.6629,-11.7031,1.4186,-0.9859,0.4521,-3.8977,0.3506,1.4959,1.3482,-2.8030,-3.7838,-4.9015
265.6250,2.9484,-3.6310,-4.8878,-3.6128,-1.7781,6.7746,-3.3178,-3.6200,-11.1261,3.9364,-0.0008,0.4548,-4.4545,1.4816,2.3710,1.0518,-3.8471,-3.7109,-5.4455
269.5312,3.4770,-3.0731,-5.4201,-3.0097,-0.9699,7.8633,-3.6768,-1.0604,-11.1703,5.2445,-0.0822,0.3353,-4.1684,2.8434,2.8167,1.0011,-3.7691,-4.4314,-5.7257
273.4375,3.4242,-3.2232,-6.1891,-2.7141,-0.1359,7.5273,-4.2914,1.0863,-11.6391,5.3550,-1.0721,0.1561,-3.1318,4.0776,2.9220,1.2329,-2.6433,-5.3263,-5.5013
277.3438,3.3362,-3.6856,-6.7565,-2.5009,0.8487,6.1141,-4.4754,2.2227,-12.0735,4.9512,-2.2572,0.1042,-1.6483,5.0866,3.1949,1.8273,-0.8271,-5.6618,-4.7129
281.2500,3.8551,-4.0354,-6.7385,-2.0445,2.2571,4.4642,-3.7098,2.3086,-12.0558,4.8456,-2.8453,0.3529,-0.1128,6.0351,4.0921,2.7667,1.1696,-5.0724,-3.5420
285.1562,5.2720,-4.0722,-6.0079,-1.2013,4.2474,3.4597,-1.9662,1.7435,-11.4882,5.3968,-2.4616,0.9011,1.1128,7.1345,5.5807,3.8435,2.8329,-3.8348,-2.3458
289.0625,7.2936,-3.8651,-4.7554,-0.1710,6.6025,3.5548,0.2329,1.0459,-10.6454,6.2911,-1.3413,1.5121,1.7782,8.3687,7.0619,4.6875,3.7752,-2.7203,-1.5014
292.9688,9.1815,-3.5983,-3.3951,0.5914,8.6739,4.5543,2.0508,0.5759,-9.9653,6.8229,-0.1179,1.8151,1.7729,9.3802,7.7230,4.9081,3.8314,-2.5000,-1.2459
296.8750,10.1751,-3.3795,-2.3784,0.6671,9.6317,5.7566,2.7469,0.4543,-9.7397,6.4458,0.6055,1.5209,1.1302,9.6370,7.0749,4.2842,3.1104,-3.4261,-1.5921
300.7812,9.9210,-3.1790,-2.0131,-0.0287,8.9175,6.3620,2.0470,0.6502,-9.9363,5.1818,0.5947,0.6185,0.0273,8.7943,5.3047,2.9074,1.9774,-5.0444,-2.3523
304.6875,8.6353,-2.9347,-2.3583,-1.1560,6.6325,5.8956,0.2840,1.0846,-10.2718,3.5935,0.0265,-0.5840,-1.2285,7.0039,3.2026,1.2014,0.9477,-6.4723,-3.2384
308.5938,6.9061,-2.7059,-3.2229,-2.1410,3.5900,4.4082,-1.7673,1.6383,-10.4629,2.3543,-0.7394,-1.6084,-2.2552,4.9370,1.7133,-0.2156,0.5032,-6.9621,-3.9772
312.5000,5.2851,-2.7086,-4.2527,-2.5253,0.9570,2.3730,-3.2778,2.0938,-10.4470,1.7432,-1.4451,-2.0620,-2.7088,3.4674,1.3969,-0.7834,0.8949,-6.3701,-4.3846
316.4062,3.9484,-3.1708,-5.0688,-2.2334,-0.3276,0.3847,-3.7666,2.1450,-10.4076,1.4375,-2.0648,-1.8420,-2.4194,3.1957,2.1309,-0.2621,2.0217,-5.2247,-4.3882
320.3125,2.6439,-4.1117,-5.4086,-1.5803,-0.0127,-1.1357,-3.3018,1.5584,-10.6027,0.7482,-2.7232,-1.1730,-1.4854,4.1088,3.2086,1.1295,3.4556,-4.3609,-4.0182
324.2188,0.9371,-5.2407,-5.2167,-1.0241,1.3975,-2.0711,-2.3860,0.4077,-11.1534,-0.8827,-3.5189,-0.4657,-0.2646,5.5860,3.7440,2.7859,4.6110,-4.3820,-3.3978
328.1250,-1.4348,-6.0948,-4.6503,-0.8536,2.9867,-2.5546,-1.6045,-0.8255,-11.9660,-3.4864,-4.4271,-0.1023,0.7468,6.7365,3.1243,3.9788,4.9804,-5.3080,-2.7379
332.0312,-4.3541,-6.3516,-3.9978,-1.0361,3.9424,-2.8275,-1.2584,-1.4435,-12.8369,-6.5497,-5.3535,-0.2764,1.0984,6.8526,1.2633,4.1794,4.3291,-6.6256,-2.3108
335.9375,-7.3903,-6.0967,-3.5465,-1.3195,3.9210,-3.1269,-1.2239,-0.9615,-13.6290,-9.3680,-6.2668,-0.9611,0.5530,5.7168,-1.4405,3.2656,2.7667,-7.6693,-2.3734
339.8438,-10.0741,-5.8310,-3.4659,-1.4823,3.0832,-3.6453,-1.1305,0.5043,-14.3549,-11.4993,-7.2587,-1.9767,-0.8221,3.6269,-4.3576,1.5139,0.6899,-8.0504,-3.0418
343.7500,-12.1626,-6.1799,-3.7558,-1.5158,1.8622,-4.5206,-0.7326,2.2013,-15.0914,-12.9930,-8.4497,-3.0768,-2.6584,1.1980,-6.9135,-0.5880,-1.3530,-7.8458,-4.1698
347.6562,-13.7064,-7.4780,-4.2738,-1.5843,0.6930,-5.7956,-0.1988,3.1519,-15.8068,-14.2484,-9.8016,-3.9903,-4.3698,-0.8895,-8.7574,-2.5614,-2.8077,-7.4488,-5.3188
351.5625,-14.8888,-9.5103,-4.8076,-1.8037,-0.1047,-7.3475,-0.0820,2.7791,-16.2642,-15.6359,-11.0001,-4.4274,-5.2977,-2.0619,-9.7698,-4.0511,-3.2343,-7.2227,-5.8780
355.4688,-15.7876,-11.5872,-5.1455,-2.0349,-0.2761,-8.8574,-0.9506,1.3248,-16.1084,-17.1710,-11.5357,-4.1160,-4.9040,-1.9279,-9.9751,-4.8085,-2.4029,-7.2202,-5.3176
359.3750,-16.2620,-12.9121,-5.1196,-1.8936,0.4364,-9.8956,-2.9130,-0.2527,-15.0907,-18.4777,-10.9727,-2.9080,-2.9824,-0.3343,-9.4585,-4.6437,-0.3728,-7.1589,-3.4656
363.2812,-16.0623,-13.0031,-4.6292,-1.0040,2.2242,-10.1162,-5.3790,-0.8627,-13.2672,-19.0472,-9.2419,-0.9206,0.1798,2.5483,-8.3538,-3.4660,2.4644,-6.6515,-0.6583
367.1875,-15.0712,-11.9102,-3.6679,0.6788,5.0018,-9.4487,-7.2708,0.0307,-11.0202,-18.5905,-6.7620,1.3973,3.7920,6.1576,-6.8860,-1.4248,5.4307,-5.5137,2.3395
371.0938,-13.4727,-10.1178,-2.3626,2.7317,8.2296,-8.1476,-7.6020,2.0783,-8.8815,-17.2264,-4.2911,3.3701,6.7746,9.6076,-5.4008,0.9796,7.7330,-3.9314,4.6298
375.0000,-11.6960,-8.2344,-0.9930,4.4425,10.9738,-6.6456,-6.0804,4.2840,-7.2793,-15.3906,-2.5824,4.3700,8.1633,11.9571,-4.3132,2.9856,8.7349,-2.3781,5.5515
378.9062,-10.1599,-6.6917,0.0526,5.1992,12.2587,-5.3059,-3.3434,5.6275,-6.3713,-13.5594,-2.0381,4.1239,7.5350,12.5877,-3.9672,3.8965,8.2151,-1.3443,4.9381
382.8125,-9.0205,-5.6293,0.4006,4.8176,11.5354,-4.2525,-0.6549,5.6345,-6.0484,-12.0056,-2.5532,2.8638,5.2247,11.4784,-4.4721,3.4696,6.4691,-1.0626,3.1355
386.7188,-8.1320,-4.9876,-0.1430,3.5794,8.9750,-3.4046,0.7674,4.5264,-6.0691,-10.7547,-3.6212,1.2071,2.1796,9.1810,-5.6182,2.0857,4.1707,-1.4021,0.7912
390.6250,-7.2678,-4.6825,-1.4697,1.9687,5.3864,-2.6758,0.3915,2.9105,-6.2161,-9.7348,-4.6269,-0.1791,-0.5047,6.4914,-6.9390,0.5269,2.0422,-1.9939,-1.4486
394.5312,-6.4225,-4.7102,-3.1677,0.3335,1.8161,-2.1513,-1.3966,1.3036,-6.3951,-8.9570,-5.1567,-0.9223,-2.1131,4.0316,-7.9058,-0.5183,0.5153,-2.4954,-3.1569
398.4375,-5.9124,-5.1157,-4.6589,-1.2466,-0.9005,-2.0604,-3.5750,-0.1286,-6.6674,-8.5494,-5.1695,-1.0766,-2.5886,2.0391,-8.1505,-0.8704,-0.4142,-2.8211,-4.1615
402.3438,-6.1258,-5.8843,-5.4167,-2.7771,-2.3473,-2.5252,-5.0679,-1.4464,-7.2474,-8.5951,-4.9589,-0.9590,-2.3862,0.5134,-7.5917,-0.8622,-1.0362,-3.1855,-4.4301
406.2500,-7.0550,-6.8689,-5.1598,-4.0130,-2.4080,-3.2748,-5.2570,-2.5839,-8.4668,-8.9050,-4.9497,-0.8136,-2.0023,-0.4128,-6.3965,-0.9010,-1.5749,-3.9272,-3.9312
410.1562,-7.9731,-7.8232,-3.9339,-4.2959,-0.9949,-3.5943,-4.1453,-3.1163,-10.6641,-8.9379,-5.4427,-0.5559,-1.5051,-0.2138,-4.8169,-0.9292,-1.8731,-5.2199,-2.5965
414.0625,-7.5916,-8.5142,-2.0562,-2.7880,2.0815,-2.6391,-2.1578,-2.3933,-13.9726,-7.9934,-6.4364,0.2008,-0.4099,1.8843,-3.0266,-0.2573,-1.3556,-6.8580,-0.4123
417.9688,-4.7361,-8.8215,0.0336,0.9717,6.9337,0.0272,0.2030,0.0179,-18.0754,-5.6115,-7.6073,1.8363,1.9843,6.3576,-1.0767,2.0051,0.6533,-8.2685,2.4409
421.8750,0.8175,-8.7490,1.9373,6.5466,13.2160,4.0199,2.5842,3.9038,-22.0950,-1.9392,-8.4538,4.3433,5.9967,12.7777,1.0021,6.1644,4.4208,-8.7696,5.5289
425.7812,7.8966,-8.3523,3.4067,12.5239,19.8596,8.1665,4.7749,8.3314,-24.7790,2.1939,-8.5305,7.1614,11.1126,19.6116,3.0432,11.3904,9.4226,-7.9408,8.2557
429.6875,14.2567,-7.6548,4.3702,17.0292,25.2215,11.0346,6.5569,12.0326,-24.9866,5.5881,-7.6594,9.3790,16.0140,24.6909,4.6790,15.8888,14.3670,-5.8816,10.0749
433.5938,17.5979,-6.6290,4.8898,18.5989,27.6790,11.6720,7.6100,14.0242,-22.2602,7.2349,-6.0093,10.2056,19.1318,26.1804,5.4564,17.8044,17.6816,-3.1912,10.6999
437.5000,16.7345,-5.2582,5.0869,16.9117,26.3844,10.1072,7.6058,14.0721,-17.1448,6.8219,-4.0070,9.4216,19.4178,23.5174,5.0879,16.3035,18.2335,-0.6621,10.1940
441.4062,12.2355,-3.6212,5.0751,12.9384,21.7346,7.3010,6.4390,12.7200,-11.0190,4.8934,-2.1276,7.5094,16.8776,17.7517,3.6795,12.0998,15.8934,1.1377,8.9005
445.3125,6.1443,-1.9196,4.9248,8.4118,15.2484,4.5813,4.4126,10.8893,-5.4822,2.5712,-0.6820,5.3702,12.5475,11.0488,1.7650,7.0338,11.6170,2.1371,7.2664
449.2188,0.9304,-0.4130,4.6635,4.9294,8.8805,2.9197,2.1987,9.3297,-1.6299,0.9899,0.2812,3.8026,7.9331,5.6171,0.0904,2.9679,6.9832,2.7188,5.6636
453.1250,-1.7211,0.7001,4.2965,3.2080,4.1370,2.4903,0.5511,8.2644,0.3722,0.7576,0.9143,3.0730,4.2528,2.6610,-0.7475,0.7406,3.4363,3.3908,4.2886
457.0312,-1.6021,1.3733,3.8252,2.8895,1.4687,2.7424,-0.0717,7.4083,1.1879,1.7261,1.4006,2.8397,1.9204,1.9343,-0.6028,-0.1255,1.6426,4.3910,3.1572
460.9375,0.1743,1.7128,3.2449,2.9468,0.2479,2.8792,0.2601,6.2885,1.7905,3.1667,1.7958,2.4585,0.5350,2.0963,0.1541,-0.8203,1.2961,5.4950,2.1608
464.8438,1.9926,1.8908,2.5278,2.3913,-0.7035,2.3944,1.0078,4.6224,2.8772,4.2240,1.9881,1.4494,-0.6807,1.6047,0.8474,-2.2434,1.4446,6.1599,1.1450
468.7500,2.6668,2.0397,1.6191,0.8447,-2.3648,1.3308,1.4848,2.5201,4.5735,4.3799,1.8024,-0.1843,-2.3005,-0.4000,0.8611,-4.3539,1.1149,5.9153,-0.0117
472.6562,1.9497,2.2030,0.4764,-1.3197,-4.9696,0.1517,1.2412,0.4255,6.5491,3.6851,1.1755,-1.9732,-4.3291,-3.6920,-0.0401,-6.3151,-0.1326,4.7383,-1.3198
476.5625,0.4201,2.3724,-0.8519,-3.2778,-7.9315,-0.6210,0.2887,-1.1235,8.3824,2.6674,0.2826,-3.2925,-6.2317,-7.1906,-1.5966,-7.2549,-2.0114,3.1574,-2.6214
480.4688,-1.0540,2.5724,-2.1553,-4.2607,-10.2317,-0.7301,-0.9522,-1.7588,9.8779,2.0051,-0.4802,-3.7383,-7.2869,-9.6066,-3.1890,-7.0057,-3.7439,2.0065,-3.5940
484.3750,-1.8645,2.9155,-3.0730,-3.9605,-11.0160,-0.2762,-1.9289,-1.4412,11.1295,2.1624,-0.6588,-3.3297,-7.0223,-10.1045,-4.1363,-6.2475,-4.5431,1.9770,-3.8511
488.2812,-1.9048,3.5710,-3.2275,-2.6443,-10.0625,0.4211,-2.2772,-0.4709,12.3453,3.1738,0.0350,-2.4369,-5.4813,-8.6500,-4.0118,-5.9686,-4.0518,3.2419,-3.1285
492.1875,-1.4483,4.6546,-2.4375,-0.9721,-7.8883,1.0483,-2.0010,0.6290,13.6198,4.6608,1.5601,-1.5293,-3.2069,-5.9379,-2.8364,-6.7001,-2.5124,5.3704,-1.4692
496.0938,-0.8502,6.1106,-0.8886,0.3394,-5.4748,1.4494,-1.4268,1.3050,14.8433,6.0421,3.5320,-0.9299,-0.9935,-3.0260,-1.0767,-8.1332,-0.6178,7.5641,0.7094
500.0000,-0.3158,7.6752,0.8710,0.8257,-3.7886,1.6409,-0.9819,1.1858,15.7975,6.8170,5.3704,-0.7231,0.4396,-0.8989,0.5436,-9.4020,0.8346,9.0564,2.7364
503.9062,0.1424,8.9670,2.1480,0.4299,-3.3575,1.7354,-0.9424,0.2510,16.3304,6.7911,6.5366,-0.8251,0.7007,-0.1492,1.3468,-9.7822,1.2864,9.4436,3.9594
507.8125,0.6016,9.6691,2.4381,-0.5341,-4.1049,1.8582,-1.2924,-1.1222,16.4585,6.1548,6.7534,-1.1174,-0.1812,-0.8540,0.9928,-9.2412,0.6072,8.7915,4.0256
511.7188,1.1081,9.7049,1.6802,-1.5674,-5.4869,2.0997,-1.7607,-2.2857,16.3280,5.3917,6.1058,-1.5276,-1.8245,-2.6310,-0.3627,-8.4215,-0.9203,7.5100,3.0170
515.6250,1.6330,9.2936,0.2694,-2.2324,-6.8192,2.4953,-1.9971,-2.6027,16.0873,5.0609,4.9805,-2.0198,-3.6694,-4.8135,-2.1289,-8.1043,-2.7648,6.1077,1.3654
519.5312,2.1018,8.8401,-1.1889,-2.3509,-7.5989,3.0063,-1.7762,-1.7712,15.7866,5.5385,3.8741,-2.5448,-5.1865,-6.6815,-3.5443,-8.6007,-4.3656,4.9666,-0.3872
523.4375,2.4389,8.7056,-2.2247,-2.0675,-7.6661,3.5091,-1.1143,-0.0163,15.3745,6.8293,3.1614,-3.0271,-6.0462,-7.6896,-4.0294,-9.5513,-5.3207,4.2253,-1.8340
527.3438,2.5828,8.9869,-2.7294,-1.7484,-7.1657,3.8225,-0.2466,1.9744,14.7696,8.5358,2.9360,-3.4146,-6.2001,-7.6347,-3.4536,-10.2630,-5.4969,3.7823,-2.8200
531.2500,2.4810,9.4364,-2.9246,-1.7677,-6.3906,3.7886,0.5090,3.3643,13.9310,10.0127,3.0009,-3.7460,-5.8527,-6.7098,-2.1777,-10.2863,-5.0472,3.3841,-3.3999
535.1562,2.0971,9.5796,-3.1265,-2.3009,-5.6332,3.3671,0.9105,3.5710,12.8734,10.6492,3.0083,-4.1606,-5.3476,-5.4192,-0.8558,-9.7657,-4.3367,2.7551,-3.7165
539.0625,1.4428,8.9678,-3.4991,-3.2443,-5.1214,2.6676,0.8820,2.5394,11.6348,10.1500,2.6674,-4.8197,-5.0224,-4.3775,-0.1084,-9.3071,-3.8000,1.7251,-3.9099
542.9688,0.6016,7.4242,-3.9818,-4.3066,-5.0214,1.8778,0.4979,0.7321,10.2471,8.6721,1.8998,-5.7840,-5.0948,-4.0630,-0.2488,-9.4916,-3.7668,0.3122,-4.1060
546.8750,-0.2928,5.1409,-4.4256,-5.2036,-5.4284,1.1295,-0.1062,-1.1399,8.7403,6.7447,0.8567,-6.9340,-5.6137,-4.6188,-1.1906,-10.4288,-4.3189,-1.2809,-4.4396
550.7812,-1.1187,2.5796,-4.7948,-5.8193,-6.2961,0.4081,-0.8199,-2.4747,7.1617,5.0125,-0.1980,-7.9972,-6.4693,-5.7805,-2.5490,-11.6721,-5.2395,-2.7631,-5.0326
554.6875,-1.8152,0.2509,-5.2364,-6.2199,-7.3454,-0.4069,-1.5796,-3.0122,5.5742,3.9407,-1.0512,-8.6660,-7.4335,-6.9668,-3.8378,-12.5184,-6.0874,-3.9028,-5.8965
558.5938,-2.3679,-1.4904,-5.9364,-6.5237,-8.0649,-1.3898,-2.3253,-2.8329,4.0261,3.6389,-1.6370,-8.7351,-8.2086,-7.5089,-4.6444,-12.4333,-6.3785,-4.6367,-6.8303
562.5000,-2.7416,-2.5224,-6.8761,-6.7415,-7.8913,-2.4270,-2.9472,-2.1770,2.5311,3.8835,-2.0132,-8.1784,-8.4929,-6.9414,-4.7265,-11.3010,-5.8024,-5.0663,-7.4315
566.4062,-2.8362,-2.9020,-7.7151,-6.7335,-6.5268,-3.2256,-3.2901,-1.2520,1.0997,4.2960,-2.2587,-7.1388,-8.0760,-5.2351,-4.0482,-9.3874,-4.3781,-5.3441,-7.2818
570.3125,-2.5424,-2.7680,-7.9532,-6.3342,-4.2090,-3.5002,-3.2327,-0.1755,-0.1937,4.5534,-2.3952,-5.8628,-6.9521,-2.8569,-2.7976,-7.1329,-2.4738,-5.5374,-6.2321
574.2188,-1.8836,-2.3040,-7.3020,-5.5571,-1.7152,-3.2154,-2.7926,0.9283,-1.1859,4.5029,-2.4052,-4.6292,-5.3876,-0.5982,-1.3797,-4.9733,-0.6698,-5.5897,-4.5995
578.1250,-1.1291,-1.7813,-6.0035,-4.7063,-0.0164,-2.6881,-2.1700,1.7986,-1.7143,4.1423,-2.3303,-3.6966,-3.8690,0.7794,-0.3322,-3.2723,0.4842,-5.4261,-3.1045
582.0312,-0.7407,-1.6019,-4.8264,-4.2770,0.2612,-2.4387,-1.6797,2.0316,-1.7920,3.5211,-2.3452,-3.2596,-2.9062,0.9154,-0.1256,-2.3055,0.7146,-5.1266,-2.5322
585.9375,-1.1274,-2.2285,-4.6797,-4.6835,-0.7614,-2.8688,-1.6021,1.2588,-1.7279,2.6582,-2.7086,-3.3997,-2.7717,0.0328,-0.9074,-2.1941,0.1560,-5.0134,-3.2963
589.8438,-2.3544,-3.9672,-6.0645,-5.9988,-2.2538,-3.9908,-2.0498,-0.5895,-2.0287,1.5366,-3.5891,-4.0503,-3.3358,-1.2057,-2.3505,-2.8041,-0.7058,-5.5356,-5.1796
593.7500,-4.0366,-6.7090,-8.7283,-7.9017,-3.1985,-5.4234,-2.9440,-3.1341,-3.0585,0.1535,-4.8816,-5.0175,-4.1337,-2.1188,-3.7604,-3.7443,-1.2715,-6.9843,-7.4401
597.6562,-5.5585,-9.8228,-11.7697,-9.8858,-3.1090,-6.6775,-4.1123,-5.6623,-4.6443,-1.4398,-6.1753,-6.0801,-4.6664,-2.4708,-4.4512,-4.5724,-1.1475,-9.2176,-9.2370
601.5625,-6.5177,-12.3349,-14.1405,-11.5863,-2.4743,-7.5317,-5.4245,-7.4806,-5.9392,-3.1554,-6.9416,-7.1244,-4.7644,-2.6780,-4.1965,-5.1331,-0.3861,-11.6030,-10.1178
605.4688,-7.0841,-13.3556,-15.2166,-12.9791,-2.5792,-8.2077,-6.8505,-8.2991,-5.7523,-4.9237,-6.8501,-8.2129,-4.7626,-3.5784,-3.4513,-5.7629,0.4937,-13.2611,-10.2510
609.3750,-7.9646,-12.5264,-15.0679,-14.2903,-4.7283,-9.1845,-8.3837,-8.3836,-3.2496,-6.7175,-6.0042,-9.5016,-5.3247,-5.8581,-3.1418,-7.1149,0.7476,-13.4897,-10.2468
613.2812,-9.9132,-10.2186,-14.2714,-15.6709,-9.3072,-10.7605,-9.8968,-8.3512,1.3715,-8.4989,-4.9138,-11.0252,-6.9799,-9.4690,-4.0920,-9.6201,-0.1909,-12.1217,-10.6790
617.1875,-13.0719,-7.3469,-13.4358,-16.8913,-15.2748,-12.6768,-11.0661,-8.7243,6.7013,-10.1177,-4.1980,-12.4929,-9.6548,-13.4275,-6.4274,-12.9342,-2.3534,-9.6047,-11.6258
621.0938,-16.6111,-4.9077,-12.7939,-17.3215,-20.4678,-14.1071,-11.4730,-9.5381,10.6410,-11.2619,-4.2033,-13.2813,-12.5289,-16.1840,-9.3576,-15.8282,-5.1364,-6.7739,-12.5439
625.0000,-18.9947,-3.5250,-12.1470,-16.2752,-22.6220,-14.0743,-10.8537,-10.2855,11.3953,-11.5464,-4.7991,-12.7075,-14.3662,-16.4008,-11.5275,-16.7319,-7.5430,-4.4758,-12.5789
628.9062,-18.7947,-3.2691,-11.1637,-13.5207,-20.5595,-12.0523,-9.3323,-10.2596,8.3755,-10.7310,-5.4996,-10.4679,-14.1718,-13.7027,-11.7618,-14.6648,-8.6619,-3.2692,-11.1268
632.8125,-15.5774,-3.8181,-9.7716,-9.6048,-14.8573,-8.3582,-7.4469,-9.0779,2.4730,-8.9363,-5.8315,-6.9668,-11.7861,-8.9459,-9.7546,-9.9503,-8.1304,-3.3299,-8.2896
636.7188,-10.2813,-4.7905,-8.3180,-5.7194,-7.5932,-4.0587,-5.8972,-7.0243,-4.4528,-6.6874,-5.6875,-3.2739,-8.0387,-3.8178,-6.2702,-4.1777,-6.3163,-4.5262,-4.9242
640.6250,-4.7949,-5.9826,-7.3632,-3.1294,-1.2941,-0.4264,-5.1407,-4.9491,-10.5467,-4.7044,-5.4077,-0.6535,-4.3344,0.0210,-2.7212,0.6386,-4.1065,-6.5329,-2.2300
644.5312,-0.9523,-7.3495,-7.2581,-2.4829,2.3223,1.7254,-5.0949,-3.7629,-14.7966,-3.5270,-5.5191,0.1031,-1.9004,1.7661,-0.3803,3.1982,-2.4141,-8.8874,-1.1095
648.4375,0.4479,-8.7965,-7.8271,-3.4299,3.1129,2.4202,-5.1626,-3.8465,-17.2754,-3.2007,-6.3155,-0.8530,-1.1398,1.8029,0.2937,3.6165,-1.6899,-11.0168,-1.6774
652.3438,-0.0041,-10.0112,-8.4098,-4.8081,2.3793,2.3911,-4.5987,-4.7766,-18.7447,-3.2417,-7.5810,-2.4748,-1.4810,1.3718,-0.1747,3.2323,-1.7232,-12.3367,-3.2121
656.2500,-0.8134,-10.5385,-8.2592,-5.3090,1.9696,2.5523,-3.0011,-5.5711,-19.9864,-2.9339,-8.6710,-3.3959,-1.8079,1.7851,-0.6808,3.6638,-1.8484,-12.4775,-4.5809
660.1562,-0.5779,-10.0917,-7.0414,-4.2363,3.1635,3.4183,-0.6127,-5.3105,-21.3464,-1.7934,-8.9196,-2.7188,-1.2008,3.6599,-0.2336,5.7516,-1.4261,-11.5448,-4.8960
664.0625,1.1412,-8.8728,-5.1065,-1.9076,5.9831,4.8277,1.7701,-3.7383,-22.7450,0.0927,-8.1073,-0.5474,0.4684,6.5916,1.4814,9.0693,-0.2996,-10.2130,-4.0232
667.9688,3.6100,-7.6211,-3.3486,0.5368,9.2788,6.1135,3.2386,-1.4456,-24.0255,2.0778,-6.6692,2.0638,2.4446,9.4180,3.9755,12.2714,1.0578,-9.4964,-2.6556
671.8750,5.4732,-7.2753,-2.7304,1.7998,11.4787,6.5778,3.2908,0.4813,-25.2723,3.3299,-5.4881,3.7164,3.5493,10.8850,6.2809,13.9797,1.8023,-10.2453,-1.9105
675.7812,5.6779,-8.4179,-3.7456,1.1781,11.5200,5.9561,2.1111,1.1249,-26.8011,3.3392,-5.3834,3.4712,2.9072,10.3268,7.4959,13.5964,1.2335,-12.6304,-2.6754
679.6875,4.1734,-10.8522,-6.1137,-1.0308,9.4296,4.5926,0.4520,0.2887,-28.8244,2.2429,-6.6076,1.3755,0.5082,8.0008,7.2337,11.5553,-0.7427,-15.9467,-5.0647
683.5938,1.9626,-13.6120,-8.8537,-3.6772,6.2629,3.2471,-0.7888,-1.3995,-31.0914,0.7609,-8.6593,-1.5779,-2.7202,4.9393,5.7685,8.9471,-3.4827,-18.9038,-8.2856
687.5000,0.5067,-15.4330,-10.6872,-5.3603,3.5018,2.6777,-1.0224,-2.8766,-32.8433,-0.2180,-10.5305,-4.0052,-5.3623,2.4347,3.8545,6.8605,-5.8893,-20.2711,-10.9887
691.4062,0.8743,-15.4181,-10.5729,-5.1379,2.2901,3.2535,-0.1945,-3.2629,-33.1968,-0.1448,-11.2423,-4.8530,-6.2309,1.4431,2.3528,5.8836,-6.9575,-19.5132,-11.9218
695.3125,3.1500,-13.5003,-8.1475,-2.9703,2.9313,4.8018,1.3058,-2.3283,-31.7315,0.8962,-10.3650,-3.8737,-4.9557,2.1956,1.8541,6.0069,-6.2789,-17.0455,-10.5474
699.2188,6.4224,-10.4394,-3.9038,0.3102,4.8728,6.7426,2.9374,-0.5506,-28.8729,2.2720,-8.2352,-1.6268,-2.1403,4.1750,2.4507,6.8559,-4.2321,-13.9726,-7.3091
703.1250,9.3127,-7.3812,0.9562,3.4508,7.1161,8.4029,4.2853,1.2240,-25.7759,3.1961,-5.7670,0.9275,0.9752,6.4305,3.7341,7.9967,-1.7655,-11.4841,-3.4160
707.0312,10.7089,-5.2672,4.9517,5.3937,8.7774,9.3320,5.1731,2.2821,-23.7380,3.1847,-3.9773,2.9572,3.1482,8.0552,5.0059,9.1099,0.0994,-10.2729,-0.2644
710.9375,10.2984,-4.4385,6.8900,5.7424,9.4928,9.4664,5.6048,2.4097,-23.4920,2.3078,-3.4868,4.1034,3.7270,8.5907,5.6128,10.0016,0.7685,-10.2929,1.2033
714.8438,8.6466,-4.6207,6.3521,4.8651,9.4883,9.0920,5.6484,1.9444,-24.8103,1.1129,-4.2498,4.4936,2.9033,8.1785,5.2617,10.5551,0.3207,-10.9380,0.8800
718.7500,6.8367,-5.2234,3.8740,3.6182,9.3357,8.6500,5.3773,1.5240,-26.6615,0.2962,-5.6325,4.4934,1.5189,7.4045,4.1641,10.7231,-0.6108,-11.4750,-0.5613
722.6562,5.8986,-5.7245,0.7044,2.8545,9.5661,8.4951,4.8928,1.6970,-27.8143,0.3261,-6.7738,4.3991,0.5528,6.9357,2.9232,10.5566,-1.2332,-11.4501,-2.1044
726.5625,6.3209,-5.9057,-1.7862,2.9745,10.3542,8.7185,4.3603,2.6014,-27.5203,1.2212,-7.0350,4.2645,0.5762,7.1481,2.2075,10.1997,-1.0347,-10.8645,-2.9559
730.4688,7.8598,-5.8550,-2.7677,3.7435,11.4234,9.1084,3.9745,3.8672,-25.8849,2.5719,-6.3093,3.9298,1.4673,7.9422,2.3772,9.8045,-0.0376,-10.0869,-2.9346
734.3750,9.6917,-5.8044,-2.3325,4.4574,12.1950,9.2602,3.8476,4.7855,-23.7442,3.7562,-5.0513,3.1870,2.5234,8.8332,3.2773,9.4185,1.2520,-9.6174,-2.4887
738.2812,10.8057,-5.9478,-1.3720,4.3589,12.0922,8.7847,3.9054,4.6719,-22.1605,4.2177,-4.0209,1.9507,2.8915,9.2506,4.3250,8.9462,2.1470,-9.8509,-2.3603
742.1875,10.4495,-6.3433,-1.0004,3.0819,10.8448,7.5232,3.8977,3.2591,-21.8443,3.6829,-3.8793,0.3336,2.0635,8.8625,4.8488,8.2395,2.1531,-10.9289,-3.1055
746.0938,8.4437,-6.9149,-1.8569,0.8864,8.6516,5.6692,3.5550,0.9199,-22.8117,2.2483,-4.8366,-1.3894,0.1618,7.7421,4.4833,7.2574,1.2163,-12.6902,-4.7481
750.0000,5.2507,-7.5034,-3.7029,-1.4416,6.1264,3.7321,2.7974,-1.4248,-24.4177,0.3397,-6.5220,-2.8796,-2.1307,6.3002,3.3880,6.1634,-0.2681,-14.6972,-6.7503
753.9062,1.7888,-7.9219,-5.5569,-2.9677,4.0545,2.3437,1.8438,-2.7135,-25.6966,-1.4289,-8.1354,-3.8298,-3.9318,5.0528,2.1684,5.2708,-1.6621,-16.3279,-8.2937
757.8125,-0.9256,-8.0016,-6.2843,-3.0613,3.0722,1.9841,1.1172,-2.2868,-25.8045,-2.4548,-8.8066,-4.0245,-4.5914,4.3844,1.5567,4.8656,-2.3800,-16.9391,-8.6958
761.7188,-2.1605,-7.6428,-5.2721,-1.6817,3.4146,2.7491,0.9881,-0.2669,-24.3552,-2.3626,-7.9900,-3.3743,-3.9537,4.4351,2.0401,5.0413,-2.1248,-16.0838,-7.7256
765.6250,-1.7328,-6.8681,-2.7789,0.6394,4.8429,4.2746,1.5220,2.4686,-21.5291,-1.1703,-5.7160,-1.9489,-2.3371,5.1343,3.6340,5.6608,-0.9722,-13.7117,-5.6675
769.5312,-0.0543,-5.8437,0.2386,3.0867,6.7723,5.8658,2.4116,4.7473,-17.9560,0.6677,-2.5901,-0.0043,-0.2963,6.2958,5.8890,6.4581,0.7001,-10.2473,-3.1357
773.4375,2.0473,-4.8308,2.6845,4.9439,8.5307,6.7841,3.1571,5.7493,-14.4514,2.3976,0.4506,2.0292,1.6573,7.6753,8.0884,7.1778,2.3767,-6.4749,-0.7754
777.3438,3.6604,-4.0676,3.9081,5.8665,9.6231,6.5655,3.3835,5.4528,-11.7220,3.2621,2.5114,3.6410,3.2163,8.9668,9.5186,7.6387,3.5861,-3.2515,0.9819
781.2500,4.1388,-3.6427,3.9675,5.9296,9.8914,5.2205,3.0843,4.5924,-10.1393,2.8402,3.0844,4.4143,4.2758,9.8035,9.7021,7.7000,4.0443,-1.1757,2.0110
785.1562,3.3320,-3.4453,3.4595,5.4793,9.5183,3.2209,2.6220,4.1467,-9.6532,1.2617,2.2241,4.2189,4.8424,9.8511,8.5342,7.2125,3.7319,-0.3743,2.4386
789.0625,1.6050,-3.2403,3.0787,4.9139,8.9000,1.2779,2.4787,4.6829,-9.8683,-0.8412,0.4910,3.3117,4.9640,8.9933,6.3092,6.0536,2.8909,-0.5141,2.5215
792.9688,-0.3590,-2.8324,3.2082,4.5203,8.4558,0.0197,2.9206,5.9871,-10.2518,-2.6467,-1.3117,2.2582,4.7277,7.4933,3.6309,4.2566,1.9348,-1.0261,2.5316
796.8750,-1.8854,-2.2164,3.7717,4.4190,8.4496,-0.2779,3.8005,7.2176,-10.3852,-3.5731,-2.4936,1.6747,4.2846,5.9694,1.2121,2.1224,1.2830,-1.4145,2.6756
800.7812,-2.6199,-1.6082,4.3760,4.5861,8.8827,0.2170,4.6319,7.4701,-10.1436,-3.5864,-2.7750,1.9051,3.8246,5.1176,-0.3940,0.1804,1.1736,-1.4895,3.0382
804.6875,-2.6772,-1.3283,4.5900,4.8918,9.4890,1.0116,4.8878,6.3707,-9.7104,-3.2042,-2.3906,2.8079,3.4770,5.3009,-1.0279,-1.0370,1.5406,-1.4111,3.5394
808.5938,-2.5549,-1.6059,4.1624,5.1302,9.8421,1.5437,4.3277,4.3086,-9.4183,-3.1800,-1.9432,3.7920,3.2012,6.2617,-0.9936,-1.2818,2.0368,-1.5408,3.9323
812.5000,-2.8528,-2.4294,3.0746,5.0599,9.5418,1.4403,3.1396,2.1829,-9.5074,-4.0487,-2.0726,4.1100,2.7724,7.1826,-0.8933,-0.7397,2.2140,-2.1967,3.8797
816.4062,-3.9415,-3.5400,1.4615,4.4837,8.4111,0.6545,1.8092,0.8617,-9.9482,-5.8023,-3.1017,3.2631,1.9119,7.1137,-1.2906,0.0789,1.7761,-3.4479,3.1108
820.3125,-5.7588,-4.5724,-0.4926,3.3538,6.6007,-0.5683,0.8036,0.7209,-10.4468,-7.8931,-4.8534,1.2894,0.4926,5.5300,-2.3883,0.6421,0.7572,-5.0546,1.5931
824.2188,-7.8436,-5.2537,-2.5999,1.8363,4.5238,-1.8538,0.2803,1.5270,-10.6353,-9.5609,-6.7463,-1.2344,-1.3259,2.6695,-3.9233,0.6856,-0.4934,-6.5763,-0.3940
828.1250,-9.5855,-5.5382,-4.6580,0.2678,2.6304,-2.8939,0.0086,2.6704,-10.3245,-10.2800,-8.1222,-3.4871,-3.1494,-0.5800,-5.3534,0.2920,-1.5232,-7.5821,-2.3573
832.0312,-10.5438,-5.6006,-6.4398,-1.0004,1.1403,-3.5709,-0.4471,3.5271,-9.6413,-10.0485,-8.6178,-4.8240,-4.5708,-3.1869,-6.2133,-0.2736,-2.0544,-7.8482,-3.8296
835.9375,-10.6496,-5.7046,-7.7310,-1.7862,-0.0908,-3.9662,-1.4036,3.7069,-8.9419,-9.3450,-8.3516,-5.0785,-5.4086,-4.5582,-6.3973,-0.8211,-2.1447,-7.4333,-4.6098
839.8438,-10.1810,-6.0347,-8.4056,-2.1648,-1.4505,-4.2690,-2.8060,3.0944,-8.5431,-8.7924,-7.8077,-4.5767,-5.7867,-4.8263,-6.1729,-1.3742,-2.1183,-6.5976,-4.8452
843.7500,-9.5420,-6.5944,-8.4815,-2.3916,-3.2416,-4.6499,-4.2132,1.7691,-8.4491,-8.7537,-7.4871,-3.8752,-5.9858,-4.6689,-5.9258,-2.0888,-2.3094,-5.6196,-4.8879
847.6562,-8.9982,-7.2213,-8.1052,-2.7020,-5.3520,-5.1680,-5.0376,-0.0501,-8.2746,-9.1202,-7.5544,-3.4042,-6.1729,-4.7989,-5.8355,-3.0323,-2.7929,-4.6251,-5.0165
851.5625,-8.5407,-7.6911,-7.4679,-3.1239,-7.1719,-5.7499,-4.9009,-1.9874,-7.4423,-9.4189,-7.7151,-3.2400,-6.2124,-5.4722,-5.7362,-4.0206,-3.2907,-3.5371,-5.2130
855.4688,-7.9562,-7.8329,-6.7066,-3.4355,-7.8688,-6.2405,-3.8886,-3.5039,-5.5488,-9.1541,-7.4131,-3.1320,-5.7101,-6.3246,-5.2734,-4.6575,-3.3193,-2.1764,-5.1544
859.3750,-7.0425,-7.5839,-5.8558,-3.3020,-6.8867,-6.4913,-2.5472,-4.0209,-2.6644,-8.1503,-6.2213,-2.7294,-4.2714,-6.6147,-4.2417,-4.5593,-2.4806,-0.4422,-4.4314
863.2812,-5.8136,-6.9661,-4.8751,-2.4971,-4.3539,-6.4415,-1.6189,-3.1837,0.6353,-6.6749,-4.1676,-1.8338,-1.7964,-5.6831,-2.8380,-3.5995,-0.6985,1.5534,-2.8434
867.1875,-4.5538,-6.0234,-3.7294,-1.0584,-1.1078,-6.1536,-1.6590,-1.1190,3.5417,-5.2728,-1.7775,-0.5085,1.3926,-3.3265,-1.6212,-2.0014,1.7444,3.4927,-0.5647
871.0938,-3.6863,-4.7847,-2.4652,0.7199,1.7151,-5.7871,-2.7507,1.5137,5.4233,-4.4331,0.2008,0.9977,4.6731,0.1132,-1.1822,-0.2248,4.3724,5.0036,1.9246
875.0000,-3.5446,-3.2879,-1.2391,2.4361,3.2830,-5.5196,-4.4670,3.7681,6.1218,-4.3095,1.2101,2.4187,7.3985,3.9312,-1.7527,1.2558,6.7463,5.8545,4.0846
878.9062,-4.1888,-1.6430,-0.2841,3.7567,3.4781,-5.4540,-6.0935,4.8392,5.9655,-4.6601,1.1784,3.5869,9.1390,7.3462,-3.0285,2.1252,8.5963,6.0615,5.5564
882.8125,-5.3714,-0.0725,0.1705,4.5052,2.8480,-5.5584,-6.9790,4.4225,5.5196,-5.0231,0.5175,4.4210,9.7546,9.7181,-4.3370,2.2674,9.7987,5.8417,6.2418
886.7188,-6.6568,1.1296,-0.0067,4.6341,2.1486,-5.6780,-6.8289,2.7950,5.2609,-4.9972,-0.1486,4.8354,9.3112,10.6458,-5.0344,1.7059,10.2719,5.4511,6.2036
890.6250,-7.6124,1.7182,-0.7785,4.1456,1.8062,-5.6188,-5.8021,0.5974,5.3823,-4.4502,-0.3388,4.6881,7.9664,10.0040,-4.8604,0.5459,9.9258,5.0255,5.5100
894.5312,-7.9719,1.6336,-1.9260,3.0498,1.6730,-5.2648,-4.3934,-1.5107,5.8139,-3.5520,0.0643,3.8448,5.9368,7.9828,-4.0288,-1.0188,8.7330,4.5282,4.1731
898.4375,-7.7066,1.0584,-3.1156,1.3953,1.2248,-4.6613,-3.1900,-3.1008,6.3815,-2.6474,0.8286,2.3220,3.5432,5.1053,-3.0248,-2.6746,6.8561,3.8233,2.2301
902.3438,-7.0084,0.3400,-4.0368,-0.6758,0.0232,-4.0130,-2.6316,-4.0187,6.9435,-2.0756,1.5630,0.3775,1.2227,2.1256,-2.2893,-4.0249,4.6916,2.8023,-0.1260
906.2500,-6.2160,-0.1904,-4.5532,-2.9196,-1.9172,-3.5899,-2.8729,-4.2826,7.4066,-2.0400,1.9304,-1.5596,-0.5928,-0.2424,-2.0157,-4.7433,2.7339,1.4650,-2.5164
910.1562,-5.7136,-0.3991,-4.7827,-5.0592,-4.1262,-3.5935,-3.7726,-3.9783,7.6539,-2.5730,1.7602,-3.1075,-1.7045,-1.6722,-2.1702,-4.7769,1.3172,-0.0907,-4.5164
914.0625,-5.8172,-0.4159,-5.0410,-6.8794,-6.0161,-4.0590,-4.9824,-3.2442,7.5056,-3.5675,1.0404,-4.1549,-2.3152,-2.4209,-2.6601,-4.4482,0.4140,-1.7334,-5.8807
917.9688,-6.6576,-0.5395,-5.6578,-8.2684,-7.2810,-4.8496,-6.0896,-2.3126,6.8003,-4.8269,-0.1401,-4.9129,-2.9639,-3.1837,-3.4703,-4.3399,-0.3391,-3.3409,-6.6763
921.8750,-8.0981,-1.0384,-6.7665,-9.1781,-8.0462,-5.7395,-6.7726,-1.5043,5.5601,-6.1069,-1.6212,-5.7360,-4.1971,-4.6257,-4.6455,-4.9841,-1.3714,-4.7824,-7.2001
925.7812,-9.7353,-1.9726,-8.2002,-9.5580,-8.6711,-6.5271,-6.9314,-1.1212,4.0955,-7.1579,-3.1585,-6.8199,-6.1634,-6.8632,-6.1447,-6.5251,-2.8336,-5.8735,-7.7264
929.6875,-11.0138,-3.1442,-9.5703,-9.3542,-9.3900,-7.1065,-6.7434,-1.2965,2.9266,-7.7813,-4.4224,-7.9958,-8.4155,-9.2607,-7.7134,-8.5696,-4.4268,-6.3803,-8.2736
933.5938,-11.4284,-4.1986,-10.4838,-8.6063,-10.0939,-7.4582,-6.5954,-1.9271,2.5305,-7.8857,-5.0647,-8.7834,-10.0955,-10.7361,-8.9095,-10.3355,-5.5413,-6.1120,-8.5787
937.5000,-10.7246,-4.8011,-10.7506,-7.5662,-10.4273,-7.5845,-6.8831,-2.7580,3.0736,-7.5090,-4.8517,-8.6903,-10.4208,-10.4241,-9.2911,-11.0358,-5.6294,-5.0565,-8.3101
941.4062,-9.0004,-4.7754,-10.4412,-6.6971,-10.1031,-7.4545,-7.7526,-3.5605,4.3188,-6.7780,-3.7869,-7.5597,-9.1643,-8.2732,-8.6427,-10.2889,-4.5612,-3.4517,-7.3583
945.3125,-6.6583,-4.1377,-9.7645,-6.4790,-9.1608,-7.0132,-8.9307,-4.2552,5.7797,-5.8273,-2.1375,-5.7261,-6.8078,-5.1600,-7.0861,-8.3355,-2.7218,-1.7148,-5.9721
949.2188,-4.2466,-3.0419,-8.8790,-7.1008,-7.9443,-6.2565,-9.7811,-4.8756,7.0107,-4.7390,-0.3342,-3.8645,-4.2658,-2.4142,-5.0155,-5.9496,-0.7908,-0.2505,-4.6238
953.1250,-2.2819,-1.7093,-7.8036,-8.2537,-6.8205,-5.3145,-9.6138,-5.4086,7.8220,-3.5581,1.1987,-2.6271,-2.3684,-1.0501,-2.9234,-4.0980,0.6361,0.7401,-3.6998
957.0312,-1.1369,-0.3976,-6.5075,-9.2159,-5.8831,-4.4659,-8.1037,-5.6698,8.2731,-2.3800,2.1813,-2.3048,-1.4538,-1.2091,-1.2448,-3.5182,1.3212,1.3193,-3.2540
960.9375,-1.0084,0.6039,-5.0944,-9.2363,-4.9031,-4.0419,-5.5670,-5.3507,8.4833,-1.4297,2.5218,-2.7233,-1.3192,-2.1737,-0.2973,-4.4120,1.3919,1.7011,-3.0163
964.8438,-1.9176,1.0121,-3.8926,-7.9968,-3.5805,-4.2547,-2.8881,-4.2336,8.4475,-1.0384,2.2750,-3.4136,-1.5131,-2.9191,-0.2832,-6.3816,1.1222,2.0608,-2.6452
968.7500,-3.6879,0.6641,-3.3162,-5.8400,-1.8905,-5.0430,-1.0895,-2.4088,8.0343,-1.4823,1.5867,-3.9117,-1.7092,-2.8031,-1.2680,-8.6222,0.6896,2.4116,-2.0170
972.6562,-5.9072,-0.3387,-3.5528,-3.5863,-0.2234,-6.0356,-0.7741,-0.3091,7.1801,-2.7621,0.6739,-3.9807,-1.8776,-1.9223,-3.0935,-10.2789,0.0965,2.6429,-1.3171
976.5625,-7.9443,-1.5694,-4.3133,-2.0418,0.8240,-6.6786,-1.7782,1.4890,6.0998,-4.4768,-0.1731,-3.6327,-2.1609,-0.9260,-5.2969,-10.8101,-0.7119,2.6741,-0.8615
980.4688,-9.1001,-2.3993,-4.8872,-1.5249,0.8637,-6.4798,-3.2653,2.5643,5.2937,-5.9174,-0.6302,-2.9976,-2.6113,-0.4739,-7.1656,-10.1981,-1.6743,2.5844,-0.8007
984.3750,-8.8847,-2.2935,-4.5485,-1.7340,0.0160,-5.2552,-4.2215,2.8328,5.2778,-6.3758,-0.4596,-2.1853,-3.0506,-0.7626,-7.9937,-8.9127,-2.5649,2.5954,-0.9612
988.2812,-7.2938,-1.1244,-3.0755,-2.0355,-1.1478,-3.2486,-4.0497,2.4965,6.1993,-5.5140,0.3334,-1.2620,-3.1884,-1.4527,-7.4451,-7.6481,-3.1310,2.9101,-0.9667
992.1875,-4.9002,0.7060,-1.0107,-1.9470,-1.9850,-1.0543,-2.8924,1.8353,7.6337,-3.5723,1.4280,-0.3306,-2.8959,-2.0021,-5.7966,-6.9633,-3.3024,3.5380,-0.5458
996.0938,-2.6413,2.4475,0.5859,-1.4547,-2.1914,0.6323,-1.4871,1.0364,8.7609,-1.2751,2.3007,0.4034,-2.3776,-2.1025,-3.8587,-7.0163,-3.2739,4.2615,0.2288
1000.0000,-1.3691,3.4120,0.7928,-0.9374,-1.9293,1.3215,-0.6630,0.2002,8.8540,0.5323,2.5081,0.6948,-2.0546,-1.8639,-2.5619,-7.5289,-3.3598,4.7883,0.9860
1003.9062,-1.3947,3.3673,-0.5188,-0.7789,-1.5850,0.9492,-0.8165,-0.5220,7.7643,1.3141,1.9820,0.4425,-2.2154,-1.6205,-2.4310,-7.9929,-3.7090,4.9817,1.3689
1007.8125,-2.3056,2.6650,-2.4965,-0.9916,-1.3723,-0.0987,-1.6993,-0.8432,6.0614,1.0939,1.1276,-0.1447,-2.7101,-1.5474,-3.2774,-7.9854,-4.1107,4.9849,1.3677
1011.7188,-3.1916,2.0109,-3.7646,-1.1626,-1.1170,-1.1676,-2.6312,-0.4566,4.7058,0.3895,0.6182,-0.5666,-2.9631,-1.4309,-4.3233,-7.3993,-4.0764,5.1251,1.3878
1015.6250,-3.1678,2.0212,-3.2748,-0.7759,-0.4107,-1.6368,-2.9637,0.6986,4.4566,-0.1150,0.9806,-0.2822,-2.3520,-0.8035,-4.6930,-6.4601,-3.1799,5.6573,1.9610
1019.5312,-1.8904,2.8496,-1.0048,0.3382,0.9878,-1.1960,-2.4733,2.2500,5.4053,0.0453,2.2274,0.9379,-0.7019,0.6494,-3.9639,-5.5415,-1.4239,6.5379,3.2955
1023.4375,0.2467,4.1185,1.9698,1.7879,2.8386,0.0329,-1.4393,3.5045,6.9408,0.8966,3.7935,2.7974,1.4788,2.7339,-2.4201,-4.9215,0.6481,7.4075,5.0117
1027.3438,2.3565,5.1844,4.1042,2.8279,4.4743,1.5781,-0.3945,3.8578,8.1559,2.0764,4.8472,4.5683,3.2334,4.7439,-0.8535,-4.6424,2.2141,7.8110,6.2954
1031.2500,3.5865,5.5451,4.3275,2.8583,5.2149,2.8555,0.2493,3.2323,8.4063,3.0874,4.7940,5.4687,3.7389,5.8469,-0.0540,-4.5461,2.6570,7.4989,6.3997
1035.1562,3.6026,5.1185,2.6996,1.8507,4.8424,3.4356,0.4423,2.1948,7.6497,3.5797,3.6486,5.0968,2.8416,5.6011,-0.3326,-4.4293,1.9483,6.5894,5.1549
1039.0625,2.7344,4.2261,0.3637,0.3850,3.7714,3.2159,0.4685,1.6107,6.3650,3.4967,2.0219,3.6469,1.1664,4.2394,-1.3798,-4.1843,0.6639,5.4724,3.1201
1042.9688,1.7140,3.3273,-1.1682,-0.7375,2.7674,2.4280,0.7066,2.0398,5.1530,3.0299,0.7198,1.7693,-0.2899,2.5221,-2.5244,-3.8313,-0.3833,4.5291,1.2536
1046.8750,1.2003,2.7104,-0.9409,-1.0254,2.4093,1.4998,1.3594,3.3054,4.3242,2.4518,0.2188,0.1718,-0.8034,1.2696,-3.1863,-3.4463,-0.6438,3.8781,0.3150
1050.7812,1.4035,2.3518,0.8848,-0.5968,2.6863,0.8569,2.3228,4.5741,3.7557,1.9567,0.3689,-0.7695,-0.3620,0.9008,-3.2101,-3.0728,-0.1265,3.3352,0.4044
1054.6875,2.0381,2.0160,3.1627,-0.0422,3.0300,0.7590,3.2436,4.9174,3.0804,1.6037,0.5301,-1.1411,0.4017,1.2842,-2.8742,-2.7037,0.6975,2.6088,0.9457
1058.5938,2.6003,1.4905,4.4709,0.0304,2.7636,1.2318,3.7047,3.9665,2.0327,1.3681,0.0524,-1.3038,0.7184,1.9619,-2.6126,-2.3406,1.2882,1.5733,1.1130
1062.5000,2.7513,0.7690,3.9463,-0.5676,1.6441,2.0952,3.4235,2.1821,0.6814,1.2285,-1.2283,-1.5465,0.2587,2.5468,-2.6748,-2.0591,1.4307,0.4044,0.4011
1066.4062,2.5346,0.0542,1.7482,-1.4936,0.1050,3.0490,2.3783,0.5415,-0.6130,1.2081,-2.8246,-1.8483,-0.6363,2.9883,-2.9693,-1.9990,1.3481,-0.5314,-1.0446
1070.3125,2.2895,-0.4064,-1.0880,-2.1423,-0.9805,3.7691,0.8283,-0.1322,-1.4681,1.3372,-3.8901,-1.9208,-1.2246,3.5304,-3.1776,-2.2638,1.4705,-0.9546,-2.5421
1074.2188,2.3429,-0.5204,-3.2765,-2.0809,-0.8593,3.9894,-0.7675,0.2903,-1.7762,1.5744,-3.7892,-1.4922,-0.9298,4.4267,-3.0298,-2.8034,2.0496,-0.9123,-3.3299
1078.1250,2.7149,-0.4385,-3.9931,-1.3352,0.5943,3.5622,-1.9151,1.2166,-1.8206,1.7611,-2.5687,-0.6114,0.2055,5.6538,-2.5274,-3.3796,2.9137,-0.8014,-3.0524
1082.0312,3.0575,-0.4756,-3.2746,-0.3470,2.7620,2.5033,-2.2856,1.8159,-2.1388,1.6653,-1.0093,0.2709,1.5036,6.8482,-1.9571,-3.6600,3.5495,-1.1514,-1.9650
1085.9375,2.8782,-0.9228,-1.9144,0.3365,4.6265,1.0122,-1.8753,1.6347,-3.2243,1.1072,-0.2024,0.5298,2.0810,7.5135,-1.6949,-3.3881,3.4521,-2.3073,-0.7570
1089.8438,1.8998,-1.8749,-0.9573,0.4037,5.3540,-0.5497,-1.0250,0.8918,-5.2422,0.0984,-0.9023,-0.2333,1.4266,7.3470,-1.9434,-2.5183,2.4959,-4.2177,-0.1347
1093.7500,0.3109,-3.1696,-1.1017,-0.0768,4.7531,-1.7390,-0.2541,0.2561,-7.9122,-1.0954,-3.0512,-1.8857,-0.2628,6.4512,-2.5760,-1.2304,1.0651,-6.4516,-0.4394
1097.6562,-1.2702,-4.4618,-2.3409,-0.7694,3.3419,-2.1590,0.0345,0.3054,-10.6048,-2.0236,-5.7703,-3.7725,-2.2076,5.2860,-3.1810,0.1750,-0.1476,-8.4182,-1.5169
1101.5625,-2.1100,-5.3767,-4.0211,-1.3261,2.0065,-1.6014,-0.1921,1.0840,-12.5981,-2.2380,-7.8266,-5.0563,-3.5363,4.3951,-3.2709,1.4203,-0.5429,-9.6469,-2.8820
1105.4688,-1.7696,-5.6598,-5.2590,-1.5949,1.4711,-0.1430,-0.5603,2.0794,-13.3776,-1.5171,-8.3000,-5.1902,-3.8168,4.0868,-2.5363,2.3391,0.0376,-9.9721,-4.0405
1109.3750,-0.3629,-5.2657,-5.4680,-1.6629,1.8914,1.8503,-0.5274,2.6056,-12.8599,-0.0136,-7.0689,-4.2337,-3.2935,4.2656,-1.0151,2.8744,1.2251,-9.5523,-4.7679
1113.2812,1.4881,-4.3613,-4.6907,-1.7499,2.7920,3.8276,0.2394,2.2881,-11.4485,1.7624,-4.8512,-2.8214,-2.7013,4.5085,0.8935,3.0215,2.3324,-8.7549,-5.1928
1117.1875,2.9755,-3.2597,-3.5511,-2.0527,3.3636,5.2354,1.5959,1.2945,-9.8924,3.1355,-2.8010,-1.8032,-2.7941,4.3263,2.5705,2.7850,2.7148,-7.9950,-5.6638
1121.0938,3.5215,-2.3113,-2.8624,-2.6418,2.9404,5.7098,2.9638,0.1749,-8.9859,3.5610,-1.9079,-1.7754,-3.8859,3.4508,3.4165,2.1875,2.0771,-7.6032,-6.4983
1125.0000,3.0612,-1.7887,-3.1305,-3.4435,1.3896,5.2059,3.6760,-0.5333,-9.2264,2.8884,-2.5260,-2.7711,-5.6687,1.9889,3.1037,1.3153,0.5778,-7.7523,-7.7628
1128.9062,2.0471,-1.8023,-4.2561,-4.2783,-0.7946,4.0078,3.3965,-0.6327,-10.5848,1.4613,-4.2602,-4.2736,-7.3891,0.3695,1.7441,0.3498,-1.2831,-8.4323,-9.2044
1132.8125,1.1901,-2.2790,-5.6170,-4.9152,-2.7388,2.6151,2.3285,-0.3062,-12.5143,-0.0109,-6.2269,-5.5172,-8.2566,-0.8747,-0.1100,-0.4543,-2.9025,-9.4655,-10.3672
1136.7188,1.0831,-3.0140,-6.4712,-5.1268,-3.6372,1.5505,1.0662,0.1092,-14.2133,-0.7660,-7.5159,-5.8899,-7.8489,-1.3669,-1.6647,-0.8441,-3.8150,-10.5604,-10.8266
1140.6250,1.9039,-3.7731,-6.4174,-4.7517,-3.1548,1.1670,0.2071,0.4121,-15.0245,-0.3495,-7.6145,-5.2187,-6.3124,-1.0567,-2.2283,-0.6668,-3.8490,-11.4082,-10.4155
1144.5312,3.3343,-4.3967,-5.6173,-3.7666,-1.5722,1.5331,0.0039,0.6665,-14.7663,1.1509,-6.6067,-3.8189,-4.2811,-0.2241,-1.5553,0.0502,-3.1682,-11.8025,-9.3180
1148.4375,4.7155,-4.8562,-4.6479,-2.3386,0.3914,2.4365,0.2942,1.0987,-13.8208,3.1159,-5.0929,-2.3236,-2.5864,0.6675,-0.0066,1.0663,-2.2076,-11.7351,-7.9836
1152.3438,5.3476,-5.2413,-4.1072,-0.8145,1.9581,3.4934,0.7217,1.8601,-12.9325,4.6584,-3.9005,-1.4109,-1.9075,1.1829,1.5888,1.9677,-1.5249,-11.4141,-6.9076
1156.2500,4.7883,-5.6942,-4.2532,0.3758,2.6550,4.3072,1.0412,2.8426,-12.8322,5.0240,-3.7202,-1.5497,-2.5147,1.0883,2.3370,2.2928,-1.5988,-11.1830,-6.4011
1160.1562,3.0246,-6.3327,-4.9140,0.8745,2.4718,4.6052,1.2530,3.6745,-13.8865,3.9409,-4.8121,-2.8394,-4.1884,0.4198,1.7519,1.7301,-2.6244,-11.3651,-6.4693
1164.0625,0.4665,-7.1952,-5.6958,0.5487,1.7723,4.3058,1.4767,3.9005,-15.9456,1.7527,-6.8853,-4.9629,-6.3192,-0.5503,0.0395,0.3206,-4.3826,-12.1033,-6.8480
1167.9688,-2.2151,-8.2235,-6.2948,-0.4309,1.0628,3.5072,1.7081,3.2382,-18.4383,-0.7287,-9.1982,-7.2536,-8.1278,-1.4018,-1.9784,-1.4545,-6.2595,-13.2682,-7.1560
1171.8750,-4.3256,-9.2767,-6.6655,-1.6244,0.7817,2.4234,1.7061,1.7715,-20.6349,-2.5818,-10.8509,-8.8800,-8.9219,-1.6651,-3.2777,-2.8071,-7.4440,-14.4820,-7.0658
1175.7812,-5.3688,-10.1669,-6.9344,-2.4688,1.2008,1.3053,1.1477,-0.0244,-21.9353,-3.1727,-11.1660,-9.1293,-8.3094,-0.9229,-3.1602,-2.9959,-7.2478,-15.2561,-6.4111
1179.6875,-5.1842,-10.7120,-7.1706,-2.4905,2.4171,0.3759,-0.0571,-1.4518,-22.0626,-2.4048,-9.9967,-7.7171,-6.3130,1.0629,-1.6102,-1.7460,-5.4174,-15.1910,-5.2136
1183.5938,-3.9676,-10.7971,-7.2408,-1.5154,4.3479,-0.2116,-1.5594,-1.8949,-21.1124,-0.7110,-7.8109,-4.9809,-3.3619,4.1998,0.7163,0.5212,-2.2863,-14.1577,-3.6590
1187.5000,-2.1777,-10.4250,-6.8955,0.2100,6.6881,-0.3907,-2.6871,-1.1333,-19.4742,1.1947,-5.4825,-1.8158,-0.1626,7.9529,2.8494,2.8400,1.3183,-12.3775,-2.0590
1191.4062,-0.3703,-9.7229,-6.0211,2.0624,8.8878,-0.1811,-2.8468,0.4986,-17.6716,2.6669,-3.8732,0.6815,2.5136,11.3840,4.0043,4.2067,4.3874,-10.3523,-0.7979
1195.3125,0.9845,-8.8897,-4.8314,3.2679,10.2567,0.3292,-1.9329,2.2196,-16.1770,3.4005,-3.4094,1.7242,4.0657,13.4141,3.9437,4.1615,6.1197,-8.6602,-0.2373
1199.2188,1.6352,-8.1028,-3.8079,3.2424,10.2290,1.0084,-0.4351,3.1687,-15.2569,3.4921,-3.8918,1.2302,4.2399,13.2532,3.0265,3.0689,6.2100,-7.7054,-0.5778
1203.1250,1.5877,-7.4430,-3.3991,1.8873,8.6720,1.7053,0.8555,2.8590,-14.9045,3.2810,-4.6547,-0.1457,3.1835,10.7998,1.9446,1.8848,4.9064,-7.5476,-1.7366
1207.0312,1.0428,-6.8904,-3.7059,-0.3296,6.0278,2.2655,1.3410,1.4562,-14.8948,3.0847,-4.9932,-1.3967,1.3526,6.7661,1.3198,1.5275,2.8299,-7.9067,-3.3337
1210.9375,0.2741,-6.3976,-4.4074,-2.5840,3.1407,2.5485,0.9606,-0.3122,-14.9411,2.9965,-4.6036,-1.7529,-0.6812,2.4093,1.3884,2.2642,0.6673,-8.3451,-4.8390
1214.8438,-0.4842,-5.9766,-4.9994,-4.1003,0.8351,2.4599,0.1488,-1.5918,-14.8659,2.8725,-3.7599,-1.1144,-2.4316,-1.0186,1.9307,3.5399,-1.0945,-8.5165,-5.8194
1218.7500,-1.0806,-5.7138,-5.1605,-4.5202,-0.4957,2.0083,-0.5321,-1.9170,-14.6748,2.5054,-3.1058,-0.0440,-3.6103,-2.7999,2.4568,4.3895,-2.2661,-8.3223,-6.1335
1222.6562,-1.4130,-5.6773,-4.9459,-4.0064,-1.0038,1.3604,-0.7875,-1.4612,-14.4735,1.8626,-3.1866,0.6811,-4.1093,-2.9546,2.5262,4.1634,-2.8682,-7.8725,-5.9335
1226.5625,-1.3665,-5.7747,-4.6444,-3.0179,-1.1188,0.8462,-0.7157,-0.8407,-14.2832,1.2111,-4.0255,0.6591,-3.8983,-2.0199,2.0168,3.0523,-2.9567,-7.2878,-5.4601
1230.4688,-0.7982,-5.6908,-4.4199,-1.9200,-1.1002,0.8652,-0.5989,-0.5995,-13.9022,1.0221,-5.0332,0.1862,-2.9375,-0.5875,1.2012,2.0208,-2.5009,-6.5036,-4.7811
1234.3750,0.3915,-5.0023,-4.0534,-0.7158,-0.7601,1.7000,-0.5714,-0.7503,-12.9536,1.6917,-5.3328,0.0759,-1.1887,1.0643,0.5943,2.1632,-1.4067,-5.2517,-3.6851
1238.2812,2.1341,-3.4429,-3.0427,0.8960,0.4105,3.3228,-0.4646,-0.7243,-11.1326,3.2455,-4.3065,1.0849,1.2745,2.9980,0.6595,3.9144,0.3371,-3.2673,-1.8412
1242.1875,4.1094,-1.1598,-1.0242,3.1758,2.7872,5.3199,0.0337,0.2054,-8.5058,5.2279,-2.0179,3.3382,4.1534,5.3302,1.5346,6.6696,2.5103,-0.5884,0.8737
1246.0938,5.7952,1.2382,1.8065,5.9766,6.1768,7.0205,1.0428,2.3172,-5.6349,6.8714,0.7681,6.1611,6.9283,7.9008,2.9302,9.0953,4.6459,2.2880,4.1299
1250.0000,6.6653,2.9246,4.6423,8.6598,9.7558,7.8002,2.2758,5.1027,-3.3853,7.4712,2.9908,8.4475,9.0316,10.1985,4.2619,9.9396,6.1988,4.5606,7.1989
1253.9062,6.4412,3.2836,6.4857,10.3972,12.4656,7.4052,3.1570,7.4660,-2.4913,6.7498,3.8747,9.3287,10.1121,11.6297,4.9533,8.8064,6.8147,5.5393,9.3142
1257.8125,5.2489,2.2669,6.7771,10.6702,13.6033,6.1030,3.2063,8.3525,-3.1341,4.9962,3.3254,8.6886,10.2215,11.9282,4.7440,6.3840,6.5312,5.0672,10.1062
1261.7188,3.5683,0.4425,5.7707,9.6124,13.1903,4.5522,2.4005,7.3768,-4.8158,2.8949,1.9097,7.1863,9.7778,11.3718,3.8289,3.9967,5.7641,3.6525,9.8006
1265.6250,1.9921,-1.3120,4.3584,7.9333,11.8624,3.4568,1.2209,5.0250,-6.6328,1.1509,0.4592,5.7818,9.3020,10.6062,2.7444,2.7968,5.0642,2.1851,9.0239
1269.5312,0.9324,-2.2915,3.4449,6.4628,10.3855,3.2066,0.3317,2.3109,-7.7897,0.1407,-0.4275,5.1068,9.0852,10.1848,2.0606,3.1255,4.7846,1.4000,8.3487
1273.4375,0.4560,-2.3219,3.3222,5.6309,9.1685,3.7186,0.1217,0.1567,-8.0274,-0.2094,-0.6669,5.1090,9.0105,10.1646,2.0558,4.4177,4.8681,1.4345,7.9044
1277.3438,0.3436,-1.7797,3.5077,5.2498,8.1243,4.5603,0.4482,-1.0598,-7.6921,-0.2670,-0.6097,5.1914,8.6611,10.0742,2.5631,5.6374,4.8971,1.7810,7.3417
1281.2500,0.3191,-1.2835,3.1705,4.7440,6.9363,5.2510,0.7722,-1.5118,-7.4149,-0.3868,-0.7007,4.7095,7.6521,9.2912,3.0793,5.9040,4.3845,1.6705,6.1758
1285.1562,0.2825,-1.2776,1.8325,3.6454,5.4686,5.5343,0.5777,-1.5635,-7.6346,-0.6666,-1.1414,3.4538,5.9596,7.5520,3.0715,4.9100,3.1225,0.6258,4.2485
1289.0625,0.3811,-1.7785,-0.1817,1.9851,3.9619,5.4555,-0.2403,-1.3886,-8.2949,-0.9172,-1.7815,1.7818,4.0111,5.2114,2.3003,2.9477,1.3660,-1.1955,1.9598
1292.9688,0.8739,-2.4264,-1.8883,0.3002,2.8632,5.2355,-1.3000,-0.8868,-8.9128,-0.8438,-2.2758,0.3395,2.4609,3.0541,0.9715,0.6459,-0.2724,-3.0995,0.0873
1296.8750,1.8942,-2.7681,-2.2875,-0.7347,2.4542,5.0727,-2.0072,0.0691,-8.9505,-0.2967,-2.3579,-0.3912,1.7941,1.7972,-0.3654,-1.3369,-1.1524,-4.3163,-0.6839
1300.7812,3.2826,-2.5624,-1.0497,-0.7673,2.6139,5.0281,-1.9634,1.3184,-8.2176,0.5843,-2.0168,-0.3831,2.0250,1.6473,-1.1074,-2.4921,-0.9613,-4.4956,-0.1904
1304.6875,4.6114,-1.9156,1.2361,0.0115,2.9264,5.0520,-1.2088,2.3522,-7.0239,1.4200,-1.4714,-0.0076,2.6940,2.2234,-0.9118,-2.5177,0.1177,-3.9008,1.1115
1308.5938,5.3813,-1.1986,3.4070,1.0194,3.0407,5.0762,-0.1484,2.6102,-5.9957,1.7901,-1.0019,0.2818,3.1619,2.8707,0.1314,-1.3612,1.5106,-3.1943,2.4225
1312.5000,5.2593,-0.8438,4.4025,1.6657,2.9647,5.0556,0.7459,1.9154,-5.7021,1.4441,-0.7967,0.2586,2.9970,3.1031,1.5430,0.6954,2.5543,-2.9970,3.0363
1316.4062,4.2109,-1.1634,3.8056,1.6729,3.0262,4.9144,1.2184,0.6866,-6.3529,0.4006,-0.9276,-0.0014,2.1967,2.8455,2.6756,2.9963,2.8098,-3.5439,2.6404
1320.3125,2.4680,-2.2702,1.9254,1.1303,3.5204,4.4772,1.3021,-0.2803,-7.7494,-1.0967,-1.4345,-0.2975,1.1124,2.3312,2.9949,4.6589,2.2253,-4.6567,1.3274
1324.2188,0.3925,-4.0790,-0.5484,0.2996,4.3429,3.5076,1.1726,-0.3351,-9.4754,-2.7109,-2.3940,-0.5487,0.1554,1.7938,2.2973,4.9470,1.0919,-5.9967,-0.6045
1328.1250,-1.6578,-6.3296,-3.0022,-0.6284,4.9408,1.8938,0.9412,0.5741,-11.1530,-4.1378,-3.8671,-0.8871,-0.4918,1.2324,0.7830,3.6977,-0.1397,-7.3589,-2.8547
1332.0312,-3.3884,-8.6066,-5.1368,-1.6279,4.6575,-0.1369,0.5644,1.8569,-12.5828,-5.1726,-5.7478,-1.5236,-0.9638,0.4371,-1.0320,1.5106,-1.0645,-8.7686,-5.1735
1335.9375,-4.5719,-10.3993,-6.8924,-2.7464,3.2162,-1.9789,-0.0743,2.6757,-13.7100,-5.7188,-7.6586,-2.5155,-1.5622,-0.7789,-2.5261,-0.4959,-1.4579,-10.3300,-7.2942
1339.8438,-5.0604,-11.2511,-8.2292,-3.9580,0.9518,-2.8981,-1.0077,2.4904,-14.5078,-5.7787,-9.0394,-3.6467,-2.5039,-2.3675,-3.2253,-1.2756,-1.3175,-11.9910,-8.8936
1343.7500,-4.8419,-10.9721,-9.0212,-5.1246,-1.4105,-2.4732,-2.1016,1.3568,-14.9135,-5.4428,-9.4365,-4.5415,-3.7587,-4.0440,-2.9993,-0.4459,-0.8325,-13.4567,-9.6976
1347.6562,-4.1000,-9.7963,-9.1648,-6.1063,-3.2674,-0.9408,-3.1158,-0.2149,-14.8775,-4.8712,-8.8168,-4.9341,-5.0809,-5.4852,-2.1130,1.5062,-0.3095,-14.3480,-9.6838
1351.5625,-3.1911,-8.3407,-8.7795,-6.9070,-4.5329,0.8313,-3.8528,-1.6994,-14.4546,-4.2420,-7.6647,-4.8786,-6.1808,-6.5349,-1.0925,3.5444,-0.0630,-14.4819,-9.1968
1355.4688,-2.4969,-7.3256,-8.2655,-7.6917,-5.5934,1.7915,-4.2641,-2.9336,-13.8194,-3.6774,-6.7355,-4.7224,-6.8872,-7.2196,-0.4541,4.7176,-0.2788,-14.0333,-8.8162
1359.3750,-2.2162,-7.1853,-8.1036,-8.6242,-6.8462,1.3214,-4.4330,-4.1467,-13.1538,-3.1897,-6.5830,-4.8452,-7.1787,-7.5608,-0.4272,4.6842,-0.8935,-13.4216,-9.0027
1363.2812,-2.2391,-7.8079,-8.5124,-9.6434,-8.1965,-0.3790,-4.4614,-5.6414,-12.4866,-2.6999,-7.1700,-5.3510,-7.0872,-7.3701,-0.8282,3.7942,-1.5603,-12.9886,-9.7467
1367.1875,-2.2214,-8.5932,-9.2368,-10.3790,-8.9413,-2.4102,-4.3693,-7.4051,-11.6409,-2.1315,-7.8507,-5.9492,-6.5876,-6.2565,-1.1782,2.7205,-1.7658,-12.7229,-10.4934
1371.0938,-1.8433,-8.8278,-9.6682,-10.3199,-8.1868,-3.7363,-4.0950,-8.9777,-10.3770,-1.5202,-7.7844,-6.1263,-5.5950,-3.9073,-1.0145,1.9458,-1.0837,-12.2644,-10.4481
1375.0000,-1.0889,-8.1565,-9.2565,-9.1561,-5.5333,-3.8294,-3.5914,-9.7011,-8.6555,-1.0482,-6.5312,-5.5034,-4.0952,-0.4575,-0.2221,1.4870,0.5476,-11.2168,-9.1010
1378.9062,-0.3390,-6.8466,-7.9383,-7.0611,-1.5316,-2.9735,-2.9292,-9.1773,-6.8132,-0.9564,-4.4278,-4.1358,-2.3033,3.3494,0.8287,1.0231,2.6893,-9.5405,-6.6341
1382.8125,-0.1765,-5.6589,-6.2676,-4.7044,2.4455,-2.0403,-2.3105,-7.5999,-5.4696,-1.3779,-2.4622,-2.5457,-0.6997,6.3883,1.4469,0.2747,4.5263,-7.7144,-3.9278
1386.7188,-1.0027,-5.3932,-5.1327,-2.9583,4.8778,-1.9037,-1.9722,-5.7115,-5.1699,-2.2062,-1.6883,-1.4575,0.1344,7.6710,1.0172,-0.6999,5.2271,-6.5076,-2.1377
1390.6250,-2.7093,-6.3885,-5.2278,-2.4665,4.9108,-2.8892,-2.0443,-4.4002,-5.9948,-3.1061,-2.5486,-1.3951,-0.1828,6.8485,-0.5966,-1.5288,4.3676,-6.4926,-2.0835
1394.5312,-4.6369,-8.2952,-6.6189,-3.3296,2.8127,-4.6005,-2.4601,-4.1927,-7.4454,-3.6801,-4.5533,-2.3860,-1.5794,4.3894,-2.8892,-1.8295,2.1830,-7.6466,-3.8125
1398.4375,-5.8722,-10.2639,-8.6782,-5.0742,-0.1732,-6.1888,-2.9731,-4.9590,-8.7525,-3.6911,-6.5516,-3.9397,-3.4941,1.3461,-4.9054,-1.5160,-0.5066,-9.3414,-6.5795
1402.3438,-5.7180,-11.4311,-10.4211,-6.8912,-2.4574,-6.8397,-3.2592,-5.9936,-9.4577,-3.1915,-7.4408,-5.3006,-5.1097,-1.1214,-5.6946,-0.8373,-2.6731,-10.7578,-9.2328
1406.2500,-4.0514,-11.3989,-11.0234,-7.9865,-2.8376,-6.1537,-3.0428,-6.4027,-9.8671,-2.4667,-6.8653,-5.8209,-5.7373,-2.1777,-4.7804,-0.1107,-3.5596,-11.4439,-10.7678
1410.1562,-1.3618,-10.4200,-10.2106,-7.8634,-0.9675,-4.2295,-2.1911,-5.5600,-10.9994,-1.8268,-5.4495,-5.2513,-5.1386,-1.5095,-2.3904,0.6196,-3.0033,-11.6173,-10.7472
1414.0625,1.5373,-9.1952,-8.3187,-6.4455,2.5962,-1.4962,-0.7625,-3.3948,-13.9562,-1.3888,-4.4027,-3.8138,-3.6068,0.7111,0.6703,1.6870,-1.4377,-11.9763,-9.4001
1417.9688,3.9267,-8.4293,-6.0432,-4.0498,6.6939,1.5126,0.9848,-0.3984,-19.0486,-1.0023,-4.7397,-2.0499,-1.7704,3.9626,3.4163,3.5381,0.4025,-13.1324,-7.4036
1421.8750,5.4764,-8.4261,-4.0663,-1.2707,10.0177,4.2843,2.6293,2.6039,-25.2509,-0.3731,-6.6069,-0.5444,-0.2473,7.4929,5.1270,6.2698,1.8783,-15.0529,-5.5084
1425.7812,6.2654,-8.9581,-2.7782,1.1825,11.5446,6.3460,3.6872,4.7774,-30.4163,0.6941,-9.1411,0.3247,0.6411,10.4190,5.6073,9.3280,2.7068,-16.9202,-4.2089
1429.6875,6.5695,-9.4559,-2.2137,2.6749,10.8392,7.2896,3.7807,5.5578,-32.2434,2.0992,-10.9501,0.5009,0.9367,11.8823,5.1576,11.6379,2.9504,-17.5386,-3.6000
1433.5938,6.5946,-9.3727,-2.1752,2.8363,8.1611,6.8892,2.8202,4.8022,-29.4934,3.4285,-10.9195,0.1937,0.8738,11.2917,4.3086,12.1406,2.7822,-16.0539,-3.4523
1437.5000,6.3411,-8.4891,-2.4254,1.6863,4.3390,5.2635,1.0981,2.7887,-22.7451,4.1359,-8.8552,-0.2920,0.6095,8.5673,3.4940,10.4077,2.2254,-12.5272,-3.4324
1441.4062,5.6645,-6.9911,-2.8281,-0.3765,0.4274,2.9284,-0.7952,0.0922,-14.2079,3.8174,-5.5867,-0.7374,0.0494,4.2237,2.8435,6.9342,1.0716,-7.9877,-3.3422
1445.3125,4.4539,-5.3111,-3.3792,-2.7465,-2.7351,0.6197,-2.2311,-2.6145,-6.6570,2.4210,-2.4917,-1.1029,-1.0951,-0.7977,2.1892,2.9124,-0.9413,-3.9208,-3.2456
1449.2188,2.7773,-3.8651,-4.1444,-4.8696,-4.8552,-1.0656,-2.8550,-4.7666,-2.0799,0.2761,-0.7481,-1.4930,-3.0464,-5.4804,1.2515,-0.3789,-3.8051,-1.4980,-3.4155
1453.1250,0.8856,-2.8598,-5.1614,-6.4548,-6.2129,-1.9933,-2.7708,-6.0610,-0.7982,-2.0674,-0.7567,-2.0328,-5.6704,-9.0667,-0.1289,-2.2010,-7.0064,-1.0115,-4.1261
1457.0312,-0.9251,-2.2721,-6.3707,-7.5248,-7.3598,-2.5443,-2.4760,-6.5121,-1.5374,-4.1003,-2.0451,-2.7491,-8.3751,-11.1995,-1.8542,-2.6439,-9.5911,-1.8304,-5.4156
1460.9375,-2.4877,-1.9736,-7.6075,-8.2997,-8.6785,-3.3281,-2.5711,-6.4040,-2.3446,-5.5812,-3.6550,-3.5415,-10.3139,-11.8490,-3.6109,-2.4583,-10.5596,-2.8626,-6.9732
1464.8438,-3.8518,-1.8824,-8.6539,-9.0065,-10.1033,-4.7295,-3.4114,-6.1619,-1.7660,-6.6196,-4.7359,-4.2574,-10.8143,-11.1636,-5.0553,-2.5791,-9.4053,-3.2071,-8.2478
1468.7500,-5.2241,-2.0230,-9.3194,-9.7432,-11.2002,-6.5940,-4.9048,-6.1890,0.4189,-7.5805,-4.9794,-4.8093,-9.7918,-9.4113,-6.0256,-3.6363,-6.4853,-2.5959,-8.7355
1472.6562,-6.8025,-2.4590,-9.5048,-10.4604,-11.5459,-8.2783,-6.5665,-6.7124,3.2806,-8.8586,-4.6660,-5.2371,-7.8830,-7.0438,-6.6426,-5.6957,-2.9734,-1.3994,-8.2802
1476.5625,-8.6168,-3.1659,-9.2231,-11.0285,-11.1175,-9.0476,-7.7818,-7.6797,5.4923,-10.6318,-4.3591,-5.6664,-6.1811,-4.7579,-7.2292,-8.3029,-0.3734,-0.2597,-7.1911
1480.4688,-10.4844,-3.9607,-8.5737,-11.3123,-10.3857,-8.5651,-8.1115,-8.7443,6.2111,-12.7205,-4.4856,-6.1988,-5.6982,-3.3819,-8.0945,-10.7499,0.1700,0.3617,-6.0859
1484.3750,-12.1160,-4.5606,-7.7004,-11.2057,-10.0216,-7.1541,-7.4680,-9.3697,5.5319,-14.6362,-5.0801,-6.8310,-6.8498,-3.5592,-9.3166,-12.4098,-1.6031,0.4232,-5.5473
1488.2812,-13.3057,-4.7434,-6.7605,-10.6429,-10.4257,-5.6618,-6.0938,-9.0426,4.2919,-15.8130,-5.8297,-7.4759,-9.2595,-5.3979,-10.6688,-13.0036,-4.9902,0.2139,-5.8020
1492.1875,-14.0767,-4.4994,-5.9121,-9.6317,-11.4270,-5.0087,-4.3972,-7.5256,3.4418,-15.9122,-6.3406,-8.0658,-11.9891,-8.3495,-11.7436,-12.7101,-8.7237,0.0564,-6.6224
1496.0938,-14.6726,-4.0560,-5.2986,-8.3125,-12.3823,-5.6943,-2.7674,-5.0239,3.4489,-15.0277,-6.4155,-8.6347,-14.0437,-11.4506,-12.1983,-12.0809,-11.6006,0.0487,-7.4973
1500.0000,-15.3800,-3.7439,-5.0058,-6.9794,-12.6076,-7.5442,-1.4683,-2.1505,4.1127,-13.6559,-6.1453,-9.2813,-14.8451,-13.8052,-11.9605,-11.7766,-12.9873,0.0334,-7.9421
1503.9062,-16.2869,-3.7847,-5.0016,-5.9944,-11.8289,-9.8197,-0.6324,0.3271,4.8508,-12.4234,-5.7735,-10.0145,-14.4084,-14.9957,-11.2545,-12.2212,-12.9446,-0.2033,-7.7406
1507.8125,-17.1446,-4.1457,-5.1115,-5.6009,-10.3354,-11.6084,-0.3089,1.8439,5.1887,-11.7219,-5.4583,-10.6105,-13.1685,-15.1544,-10.4286,-13.3419,-11.9733,-0.6827,-6.9809
1511.7188,-17.4593,-4.5650,-5.0862,-5.7505,-8.7484,-12.2704,-0.5087,2.2895,5.0842,-11.4809,-5.1263,-10.6403,-11.6288,-14.6810,-9.7052,-14.5643,-10.6061,-1.1440,-5.9104
1515.6250,-16.7957,-4.7339,-4.7619,-6.0951,-7.6044,-11.7168,-1.2144,1.9945,4.8797,-11.2414,-4.5362,-9.7155,-10.0919,-13.8588,-9.0319,-15.1124,-9.1335,-1.2056,-4.7530
1519.5312,-15.1193,-4.5080,-4.2242,-6.1956,-7.0689,-10.4029,-2.3675,1.4550,4.9653,-10.4988,-3.5064,-7.8166,-8.6315,-12.6814,-8.1438,-14.4729,-7.6061,-0.6651,-3.6333
1523.4375,-12.9396,-3.9942,-3.8401,-5.8287,-6.9662,-9.0617,-3.8548,0.9810,5.4340,-9.0918,-2.1279,-5.4536,-7.2592,-11.0147,-6.7961,-12.7404,-6.0380,0.2880,-2.6324
1527.3438,-11.1129,-3.4462,-4.0801,-5.1651,-7.0501,-8.3206,-5.5055,0.5195,5.9945,-7.3585,-0.7873,-3.4810,-6.0936,-8.9212,-5.0013,-10.5936,-4.5909,1.1305,-1.8805
1531.2500,-10.3733,-3.0409,-5.1927,-4.6531,-7.2573,-8.3837,-7.0988,-0.2181,6.1978,-5.9242,0.0475,-2.6219,-5.3561,-6.8269,-3.0934,-8.8830,-3.5556,1.3305,-1.5622
1535.1562,-10.8599,-2.7001,-6.9300,-4.6563,-7.7187,-8.9339,-8.3767,-1.4160,5.8038,-5.2481,0.1465,-2.9897,-5.1810,-5.3351,-1.5625,-8.0829,-3.1335,0.7360,-1.7948
1539.0625,-11.9506,-2.0969,-8.5346,-5.1010,-8.5261,-9.3044,-9.0738,-2.8666,5.0191,-5.2436,-0.2793,-3.9491,-5.3984,-4.7936,-0.7635,-7.9869,-3.1965,-0.2441,-2.4672
1542.9688,-12.5473,-0.8590,-9.0575,-5.4159,-9.4587,-8.8428,-8.9728,-3.9734,4.4334,-5.2667,-0.6502,-4.4560,-5.4943,-4.9544,-0.6945,-7.8770,-3.2434,-0.8154,-3.1788
1546.8750,-11.6762,1.1608,-7.8561,-4.8534,-9.9210,-7.2779,-7.9821,-4.0750,4.6894,-4.5180,-0.3424,-3.6907,-4.8267,-5.0288,-0.9938,-7.0632,-2.6365,-0.2480,-3.3593
1550.7812,-9.0526,3.7272,-4.9769,-2.9939,-9.1845,-4.8855,-6.2006,-2.8736,6.0944,-2.6060,0.9305,-1.5774,-2.9842,-4.1482,-1.1576,-5.4094,-0.9891,1.6719,-2.5222
1554.6875,-5.2627,6.2874,-1.1771,-0.0774,-6.7964,-2.3470,-3.9262,-0.6595,8.4064,0.1232,2.9230,1.1631,-0.0555,-1.9267,-0.8333,-3.4514,1.5496,4.4759,-0.5112
1558.5938,-1.4491,8.2212,2.4400,3.0895,-2.8915,-0.3750,-1.5844,1.8398,10.9143,2.7420,4.9809,3.4681,3.3710,1.2756,-0.0043,-2.0051,4.3129,7.2446,2.3967
1562.5000,1.3001,9.1216,4.9520,5.5967,1.7932,0.6666,0.4027,3.8851,12.7586,4.3054,6.4042,4.5871,6.4743,4.5736,1.0377,-1.5485,6.4421,9.0921,5.5752
1566.4062,2.4789,8.9444,5.9875,6.9401,6.2058,0.9063,1.7482,5.1239,13.3151,4.4493,6.8252,4.4888,8.5615,7.0929,1.8928,-1.8484,7.3183,9.6019,8.2578
1570.3125,2.3005,7.9612,5.7414,7.2149,9.3966,0.7820,2.3748,5.6829,12.4509,3.6100,6.3671,3.7569,9.3023,8.4285,2.2834,-2.1357,6.8366,8.9522,9.7735
1574.2188,1.4106,6.5758,4.6886,6.8781,10.8446,0.6658,2.4019,5.9153,10.5393,2.7092,5.5033,3.0799,8.7342,8.7173,2.1776,-1.7187,5.3732,7.6798,9.7319
1578.1250,0.4208,5.1351,3.2444,6.2958,10.5618,0.5768,2.0674,6.0251,8.2464,2.5227,4.7256,2.7262,7.1046,8.3329,1.7557,-0.5767,3.5008,6.2708,8.1331
1582.0312,-0.4027,3.8374,1.6195,5.4548,8.9865,0.2033,1.6258,5.8823,6.2003,3.1739,4.2481,2.3957,4.7141,7.5008,1.2710,0.5366,1.6635,4.8719,5.3932
1585.9375,-1.1122,2.7549,-0.0723,4.0799,6.7675,-0.7687,1.2688,5.1853,4.7095,4.1037,3.9292,1.5457,1.8803,6.1744,0.9083,0.5988,0.0217,3.3158,2.2645
1589.8438,-1.8033,1.9151,-1.6055,2.0616,4.5470,-2.2667,1.0877,3.8375,3.6802,4.5280,3.4442,-0.0669,-0.9924,4.2661,0.7107,-0.9090,-1.4622,1.4278,-0.3676
1593.7500,-2.3590,1.3687,-2.5640,-0.1725,2.8018,-3.6998,1.0782,2.2230,2.7932,4.0441,2.5795,-2.0491,-3.3647,2.0068,0.5927,-3.5269,-2.8027,-0.6184,-1.7789
1597.6562,-2.4454,1.2118,-2.5009,-1.6948,1.7596,-4.2363,1.1777,1.1180,1.8665,2.9469,1.4514,-3.5088,-4.6531,0.0735,0.4042,-6.0134,-3.8227,-2.1705,-1.6817
1601.5625,-1.7738,1.5715,-1.2302,-1.5766,1.3868,-3.3399,1.3184,1.2490,1.1966,2.0293,0.5139,-3.5874,-4.4625,-0.7100,0.0056,-7.1082,-4.1781,-2.3180,-0.3300
1605.4688,-0.4199,2.5690,0.9757,0.4631,1.4449,-1.2073,1.4731,2.7840,1.6266,2.0112,0.3504,-2.0219,-2.8291,0.0576,-0.6692,-6.3484,-3.5661,-0.3641,1.6239
1609.3750,1.0696,4.2609,3.4540,3.7181,1.5969,1.2200,1.6642,5.1171,4.1966,3.0042,1.3649,0.6470,-0.3031,1.9257,-1.5753,-4.3713,-1.9798,3.7167,3.4608
1613.2812,1.9004,6.5491,5.4517,6.7437,1.5257,2.7225,1.9175,7.1232,9.4694,4.3860,3.5314,3.3546,2.2152,3.6659,-2.5551,-2.4988,0.1685,9.0977,4.7199
1617.1875,1.4617,9.0856,6.4544,8.0775,1.0210,2.4770,2.1781,7.7432,16.8805,5.1661,6.3226,5.0852,3.8258,3.8903,-3.3856,-1.8921,2.1546,14.3138,5.3249
1621.0938,-0.3070,11.2501,6.3323,7.0030,0.0199,0.5202,2.2504,6.5401,24.5515,4.5902,8.8553,5.3672,3.9944,1.8707,-3.8638,-2.8491,3.2449,17.7758,5.4534
1625.0000,-2.8467,12.2827,5.2487,3.8990,-1.3808,-2.2807,1.8335,3.8976,29.8276,2.5865,10.2016,4.4121,2.7565,-1.9476,-3.8934,-4.6933,3.0450,18.3584,5.2820
1628.9062,-5.2389,11.5827,3.4635,-0.0033,-2.9113,-4.7170,0.6796,0.7726,30.4010,-0.2092,9.7550,2.8740,0.6807,-6.0719,-3.5160,-6.2784,1.7130,15.8106,4.8233
1632.8125,-6.6304,9.0522,1.2227,-3.2688,-4.1236,-5.8685,-1.1915,-1.8079,25.4813,-2.8226,7.5054,1.4443,-1.3739,-8.6787,-2.8632,-6.7264,-0.0856,10.8345,3.9858
1636.7188,-6.5817,5.2747,-1.1920,-4.9095,-4.4547,-5.4961,-3.3614,-3.1915,16.3453,-4.4382,4.0941,0.5462,-2.5898,-8.5167,-2.0608,-5.9019,-1.4752,4.8180,2.7908
1640.6250,-5.1836,1.3581,-3.3582,-4.7033,-3.4084,-4.0102,-5.0972,-3.2644,5.8714,-4.7298,0.5881,0.2616,-2.4848,-5.4986,-1.1640,-4.3595,-1.7873,-0.6683,1.5310
1644.5312,-2.9440,-1.5442,-4.7371,-3.0973,-0.8260,-2.1076,-5.6670,-2.3256,-2.7794,-3.8912,-1.9660,0.4411,-1.0703,-0.6814,-0.1836,-2.8789,-0.8906,-4.4193,0.6889
1648.4375,-0.5512,-2.8034,-4.9064,-0.8616,2.9004,-0.3566,-4.7433,-0.8321,-7.6539,-2.4391,-3.0158,0.8556,1.1721,4.3112,0.8145,-1.9506,0.7464,-5.9913,0.6291
1652.3438,1.3661,-2.6385,-3.8710,1.2647,6.8523,1.0206,-2.6559,0.8034,-8.8459,-0.9616,-2.7614,1.2877,3.4925,8.0847,1.6305,-1.5399,2.3144,-5.7931,1.2893
1656.2500,2.4241,-1.9705,-2.1917,2.7824,9.9256,2.1015,-0.3051,2.2847,-8.2156,0.0626,-2.0297,1.5694,5.1851,10.0690,1.9794,-1.2150,3.1200,-4.8350,2.1351
1660.1562,2.5940,-1.8616,-0.7559,3.4911,11.3570,3.0720,1.2645,3.4229,-8.1724,0.3613,-1.7975,1.6217,5.8888,10.6403,1.6788,-0.4743,2.9915,-4.2376,2.4653
1664.0625,2.2205,-2.8706,-0.2767,3.4700,11.1371,4.0660,1.4124,4.1281,-10.2569,-0.0690,-2.6152,1.5122,5.7262,10.7612,0.8637,0.9668,2.3824,-4.7207,1.8811
1667.9688,1.9098,-4.7274,-0.8417,3.0229,10.0310,5.1283,0.2579,4.4345,-14.3561,-0.9269,-4.2717,1.4713,5.1929,11.3641,0.0461,3.0699,2.0854,-6.3143,0.5810
1671.8750,2.2778,-6.5420,-1.8501,2.5737,9.1493,6.2628,-1.3776,4.5114,-18.9728,-1.6540,-5.9228,1.7911,4.8362,12.8077,-0.0884,5.5279,2.7044,-8.4328,-0.7576
1675.7812,3.6363,-7.4180,-2.4241,2.4957,9.3101,7.4666,-2.4192,4.6010,-22.3019,-1.6346,-6.6268,2.6150,4.9019,14.6792,0.9242,7.8809,4.2038,-10.2597,-1.4486
1679.6875,5.7793,-7.0654,-2.0334,2.9239,10.5896,8.6986,-2.1223,4.8884,-23.3926,-0.5129,-5.9630,3.7511,5.1740,16.0330,2.9752,9.6328,5.8398,-11.2188,-1.2901
1683.5938,8.0285,-6.0046,-0.8894,3.6703,12.3457,9.8246,-0.4503,5.3860,-22.6657,1.5402,-4.3343,4.6788,5.1300,15.9344,5.3327,10.3790,6.5538,-11.2598,-0.7127
1687.5000,9.5633,-5.2172,0.1953,4.3333,13.6908,10.6279,1.9598,5.9322,-21.5217,3.8146,-2.7444,4.8159,4.3331,14.0220,6.9780,9.9643,5.6178,-10.8015,-0.4603
1691.4062,9.8732,-5.4718,0.4112,4.5745,14.0848,10.9222,4.2008,6.3242,-21.3642,5.3866,-2.1761,3.9155,2.8077,10.7815,7.1668,8.6269,3.1364,-10.3936,-1.0218
1695.3125,9.0614,-6.7761,-0.3993,4.3902,13.6526,10.7052,5.6075,6.4976,-22.7099,5.6372,-2.9633,2.3292,1.1337,7.3749,5.8777,7.0089,0.0809,-10.3278,-2.2241
1699.2188,7.7969,-8.3257,-1.5229,4.1807,13.0415,10.2280,6.0748,6.6146,-24.9356,4.6539,-4.5647,0.9161,0.1684,5.1069,3.8598,5.9487,-2.1883,-10.4512,-3.2868
1703.1250,6.9296,-8.9943,-1.7742,4.5392,12.9597,9.8979,6.0230,6.9814,-26.7583,3.2370,-5.8847,0.6032,0.5573,4.8176,2.2331,6.1039,-2.6321,-10.2888,-3.3084
1707.0312,7.0042,-8.0481,-0.2639,5.8780,13.7501,10.0523,6.0756,7.8445,-27.0698,2.4682,-5.9382,1.8473,2.3493,6.5346,1.8740,7.6051,-1.0496,-9.3750,-1.8443
1710.9375,7.9787,-5.6246,2.9771,8.1427,15.2850,10.7458,6.6705,9.2091,-25.5719,3.0817,-4.4328,4.3448,4.9747,9.5633,2.9584,9.9641,1.8939,-7.5661,0.8200
1714.8438,9.3117,-2.6693,6.9445,10.8096,17.1993,11.6988,7.8311,10.8130,-22.8583,5.0223,-1.9147,7.1898,7.5996,12.9317,4.9250,12.3216,5.1115,-5.1397,3.8749
1718.7500,10.3371,-0.3838,10.2170,13.1738,19.2169,12.4539,9.1923,12.2739,-19.9841,7.4654,0.5862,9.3922,9.6232,15.9021,6.8525,13.8963,7.7071,-2.6401,6.5010
1722.6562,10.6642,0.4592,11.7566,14.7297,21.2815,12.6452,10.2158,13.2978,-17.8697,9.2858,2.1540,10.4275,10.9873,18.2455,7.9934,14.3633,9.3786,-0.5944,8.3254
1726.5625,10.3495,-0.0940,11.4375,15.3945,23.3961,12.2112,10.4451,13.7977,-16.9117,9.6852,2.4470,10.4760,12.1087,20.1562,8.1332,13.9420,10.4099,0.7180,9.5217
1730.4688,9.7738,-1.2937,10.0016,15.4461,25.3454,11.4209,9.6738,13.8462,-16.9594,8.6100,1.7668,10.2209,13.5086,21.9308,7.5923,13.1792,11.3351,1.3329,10.5362
1734.3750,9.3592,-2.1929,8.5257,15.2577,26.5936,10.7086,7.9886,13.5246,-17.5466,6.7380,0.7644,10.3693,15.4094,23.6739,6.9304,12.6128,12.5472,1.5146,11.6849
1738.2812,9.3465,-2.1955,7.7932,15.0426,26.5123,10.4312,5.7231,12.8102,-18.1552,5.0850,0.0296,11.2229,17.5733,25.2310,6.5869,12.5462,14.1056,1.6128,12.9238
1742.1875,9.7588,-1.3142,7.9631,14.7865,24.8168,10.6945,3.3728,11.6101,-18.3588,4.4890,-0.1659,12.5603,19.4641,26.3523,6.6859,13.0354,15.8022,1.9420,13.9276
1746.0938,10.5101,-0.0293,8.6788,14.3759,21.8813,11.3357,1.4882,9.9204,-17.8601,5.2546,0.1350,13.8563,20.5816,26.9061,7.0805,14.0032,17.3533,2.6983,14.3629
1750.0000,11.5099,1.0959,9.4385,13.7756,18.6562,12.0419,0.5424,7.9724,-16.5280,7.0979,0.7430,14.6348,20.7178,26.9392,7.5373,15.3144,18.5248,3.8857,14.1117
1753.9062,12.6561,1.7547,9.9152,13.0865,16.1804,12.5120,0.7831,6.2191,-14.4838,9.3510,1.4713,14.6958,19.9687,26.5303,7.8934,16.7272,19.1092,5.2496,13.2755
1757.8125,13.7446,1.9861,10.0224,12.4344,14.9860,12.5699,2.1235,5.1306,-12.1672,11.2698,2.1552,14.0902,18.5362,25.5737,8.0816,17.7999,18.8326,6.2767,11.9958
1761.7188,14.4248,2.0102,9.7610,11.8007,14.7910,12.1884,4.1449,4.9208,-10.2496,12.2994,2.5862,12.9278,16.5112,23.7103,8.0555,17.9248,17.3498,6.3396,10.2782
1765.6250,14.3089,1.9810,9.0552,10.9683,14.6945,11.4498,6.2443,5.4015,-9.3535,12.2217,2.4912,11.2214,13.8224,20.5212,7.7241,16.5752,14.4060,4.9889,7.9961
1769.5312,13.1993,1.8573,7.7546,9.6619,13.7557,10.4899,7.8727,6.0838,-9.7032,11.1800,1.6423,8.9137,10.3890,15.8886,6.9808,13.6602,10.0869,2.2617,5.0831
1773.4375,11.2724,1.4669,5.8026,7.7957,11.5816,9.4561,8.7373,6.4776,-10.9425,9.5948,0.0443,6.0616,6.3492,10.2701,5.8082,9.7344,4.9689,-1.2004,1.7497
1777.3438,9.0493,0.6865,3.4027,5.6321,8.5553,8.4798,8.8534,6.3871,-12.2873,7.9913,-1.9571,3.0001,2.1701,4.6640,4.3597,5.8524,0.0194,-4.3650,-1.4748
1781.2500,7.1304,-0.4223,1.0072,3.7002,5.5841,7.6468,8.4215,5.9967,-12.9605,6.7753,-3.7739,0.3124,-1.4645,0.2348,2.9227,3.0884,-3.7417,-6.2958,-3.9443
1785.1562,5.8506,-1.6246,-0.8988,2.5001,3.5572,6.9685,7.6276,5.6824,-12.6419,6.0441,-4.8580,-1.4228,-3.9306,-2.1980,1.7676,1.9860,-5.6412,-6.6485,-5.2206
1789.0625,5.0947,-2.6467,-2.0632,2.1891,2.8703,6.3694,6.5150,5.6866,-11.6297,5.5383,-4.9967,-1.9516,-4.9302,-2.5059,0.9849,2.2885,-5.5900,-5.8580,-5.2938
1792.9688,4.4092,-3.3204,-2.5751,2.4765,3.2923,5.7157,5.0248,5.8953,-10.5905,4.7967,-4.4159,-1.5083,-4.5872,-1.2309,0.4379,3.1330,-4.0367,-4.8661,-4.5456
1796.8750,3.3431,-3.6322,-2.7304,2.8156,4.2031,4.8819,3.1664,5.8939,-10.0641,3.4554,-3.6164,-0.6926,-3.3313,0.7684,-0.1228,3.5890,-1.6941,-4.5318,-3.4904
1800.7812,1.7776,-3.6671,-2.7697,2.7656,4.9954,3.8183,1.1695,5.2707,-10.0696,1.5203,-3.0547,-0.1306,-1.6691,2.7687,-0.8590,3.1954,0.7819,-5.0957,-2.4859
1804.6875,0.0128,-3.5260,-2.7116,2.2685,5.3648,2.5762,-0.5313,3.9513,-10.0956,-0.5775,-2.8915,-0.1425,0.0066,4.4509,-1.7070,2.1576,2.9850,-6.0554,-1.6200
1808.5938,-1.4494,-3.3064,-2.4317,1.6371,5.3299,1.2664,-1.5136,2.3061,-9.4890,-2.2110,-2.9806,-0.6321,1.4692,5.8490,-2.4127,1.1016,4.7585,-6.5518,-0.8357
1812.5000,-2.2652,-3.1548,-1.9234,1.2573,5.0273,-0.0205,-1.6574,0.9295,-7.9682,-2.9511,-3.0824,-1.2584,2.5869,7.0612,-2.7231,0.5814,6.0683,-6.0173,-0.1700
1816.4062,-2.4909,-3.3095,-1.5106,1.2207,4.4739,-1.2718,-1.2997,0.2262,-5.8928,-2.8674,-3.1225,-1.7472,3.2240,7.9596,-2.5982,0.6837,6.8722,-4.6475,0.1077
1820.3125,-2.5304,-4.0350,-1.7850,1.1667,3.4871,-2.5349,-1.1100,0.0969,-4.0846,-2.5168,-3.2808,-2.1072,3.2171,8.1252,-2.2863,0.9871,7.0781,-3.3550,-0.4064
1824.2188,-2.8278,-5.4355,-3.2478,0.4801,1.8235,-3.8247,-1.7212,-0.0344,-3.3063,-2.5952,-3.8331,-2.5964,2.4540,7.0755,-2.1937,0.8749,6.5984,-3.2043,-1.9594
1828.1250,-3.5250,-7.2599,-5.8764,-1.2641,-0.5626,-5.0212,-3.3240,-0.8366,-3.7448,-3.4602,-4.8658,-3.4685,0.9974,4.6469,-2.6304,-0.0311,5.4417,-4.6830,-4.3615
1832.0312,-4.3344,-8.8683,-8.9427,-3.9026,-3.3307,-5.8444,-5.4842,-2.5741,-4.8479,-4.8422,-6.0934,-4.7005,-0.8482,1.2746,-3.6011,-1.6134,3.7730,-7.2911,-6.9335
1835.9375,-4.7218,-9.4562,-11.2724,-6.6268,-5.7878,-5.9611,-7.3211,-4.8363,-5.6282,-5.9565,-6.9456,-5.9161,-2.5981,-2.0456,-4.7894,-3.3334,1.9024,-9.7424,-8.7617
1839.8438,-4.2819,-8.4637,-11.8430,-8.3538,-7.1637,-5.1838,-7.9711,-6.6999,-5.2427,-5.9737,-6.8934,-6.5822,-3.7692,-4.1515,-5.7469,-4.5699,0.2049,-10.6823,-9.1403
1843.7500,-3.0510,-5.9407,-10.3743,-8.3309,-7.0008,-3.6493,-7.0791,-7.2480,-3.4822,-4.5613,-5.8006,-6.3536,-4.0968,-4.2821,-6.1621,-4.9867,-0.9973,-9.4873,-7.9510
1847.6562,-1.5435,-2.6274,-7.5376,-6.6123,-5.4433,-1.8464,-5.0330,-6.1278,-0.8745,-2.1510,-4.0511,-5.3306,-3.6678,-2.5145,-6.0288,-4.7006,-1.5476,-6.6511,-5.7553
1851.5625,-0.4772,0.3432,-4.6333,-4.1015,-3.2515,-0.4383,-2.7998,-3.7943,1.6426,0.2540,-2.3478,-4.0395,-2.8910,0.1926,-5.6071,-4.1645,-1.5191,-3.5148,-3.5366
1855.4688,-0.3565,1.9838,-2.9147,-2.1069,-1.5017,0.0470,-1.4436,-1.2875,3.2556,1.6242,-1.3043,-3.1385,-2.3093,2.4066,-5.2159,-3.8603,-1.1962,-1.5047,-2.2296
1859.3750,-1.1741,1.9352,-2.9506,-1.6572,-1.1058,-0.5094,-1.5845,0.3118,3.6881,1.4712,-1.0955,-3.0352,-2.3485,2.8833,-5.0122,-4.0068,-0.9680,-1.3434,-2.2891
1863.2812,-2.4236,0.6152,-4.3917,-2.9744,-2.3965,-1.7517,-3.0876,0.4123,3.2606,0.0894,-1.4011,-3.6679,-3.1410,1.1307,-4.9155,-4.4580,-1.1744,-2.7076,-3.5252
1867.1875,-3.4200,-1.0539,-6.2556,-5.4094,-5.0050,-3.0483,-5.1429,-0.8784,2.5987,-1.6717,-1.6771,-4.5926,-4.5219,-2.4328,-4.7260,-4.8411,-1.9809,-4.5185,-5.2780
1871.0938,-3.7415,-2.1785,-7.5345,-7.8683,-8.0979,-3.8549,-6.6890,-2.9419,2.1975,-2.9545,-1.5705,-5.3140,-6.1954,-6.8023,-4.3422,-4.8376,-3.3526,-5.6604,-6.8177
1875.0000,-3.5237,-2.3817,-7.7611,-9.4599,-10.8403,-4.0283,-6.9576,-5.0601,2.1164,-3.4135,-1.1935,-5.6328,-7.9536,-10.9753,-3.9076,-4.4276,-5.1332,-5.6678,-7.7425
1878.9062,-3.4183,-1.9692,-7.2147,-9.9684,-12.8088,-3.8967,-5.8581,-6.7616,1.9790,-3.3874,-1.0684,-5.7758,-9.7931,-14.4322,-3.7662,-3.9442,-7.1609,-4.9582,-8.1531
1882.8125,-4.2210,-1.6959,-6.6827,-9.8762,-14.1120,-4.0372,-4.0088,-7.9148,1.2604,-3.6214,-1.7735,-6.2193,-11.8305,-17.2135,-4.2444,-3.8979,-9.3180,-4.4866,-8.5204
1886.7188,-6.3689,-2.2815,-6.9469,-9.9516,-15.1592,-4.8922,-2.4015,-8.5872,-0.3204,-4.7267,-3.5199,-7.3261,-14.0675,-19.5790,-5.4034,-4.6713,-11.4637,-5.0618,-9.3341
1890.6250,-9.5965,-3.9610,-8.3049,-10.6894,-16.2503,-6.4633,-1.8772,-8.8542,-2.5405,-6.7231,-5.9372,-9.0414,-16.1823,-21.5319,-6.9358,-6.2674,-13.3101,-6.7703,-10.7473
1894.5312,-12.9672,-6.3229,-10.3935,-11.9778,-17.2835,-8.2775,-2.6897,-8.7405,-4.7041,-8.9586,-8.2137,-10.8565,-17.5385,-22.5941,-8.2891,-8.2713,-14.3802,-8.8761,-12.4317
1898.4375,-15.2965,-8.5174,-12.3968,-13.2033,-17.7989,-9.6503,-4.3935,-8.3290,-5.9629,-10.4629,-9.5144,-12.0743,-17.4761,-22.0457,-8.9477,-10.0611,-14.1576,-10.2599,-13.7376
1902.3438,-15.7560,-9.7141,-13.5094,-13.7145,-17.3407,-10.0861,-6.1208,-7.9022,-5.7624,-10.5207,-9.4283,-12.2151,-15.7418,-19.4949,-8.7065,-11.1486,-12.3974,-10.1185,-14.0739
1906.2500,-14.3325,-9.5550,-13.3945,-13.3188,-15.8864,-9.5708,-7.0988,-7.9355,-4.1768,-9.1125,-8.1826,-11.3105,-12.7819,-15.3716,-7.7746,-11.4427,-9.4096,-8.4868,-13.2845
1910.1562,-11.8754,-8.3574,-12.3831,-12.4697,-14.0213,-8.5812,-7.1116,-8.8702,-1.9391,-6.9538,-6.5079,-9.9031,-9.6612,-10.9411,-6.6587,-11.2670,-6.0846,-6.2529,-11.7917
1914.0625,-9.6882,-6.9581,-11.3017,-12.0003,-12.6925,-7.8114,-6.6305,-10.7817,-0.1252,-5.1083,-5.2439,-8.7515,-7.5868,-7.7383,-5.9069,-11.1187,-3.5592,-4.6551,-10.4028
1917.9688,-8.8695,-6.2769,-11.0124,-12.5667,-12.6629,-7.7903,-6.5195,-13.1781,0.3650,-4.4097,-4.9173,-8.4161,-7.2807,-6.7293,-5.8601,-11.3233,-2.6626,-4.5645,-9.8730
1921.8750,-9.7610,-6.8302,-11.9092,-14.1637,-14.0036,-8.6111,-7.4777,-15.1111,-0.7309,-5.0380,-5.5206,-8.9669,-8.5699,-7.7287,-6.5304,-11.8145,-3.4588,-5.9882,-10.4671
1925.7812,-11.7990,-8.4489,-13.6484,-16.0402,-15.9619,-9.9184,-9.5506,-15.5941,-2.8826,-6.4897,-6.5868,-9.9728,-10.4603,-9.4753,-7.6352,-12.1874,-5.1879,-8.0840,-11.7755
1929.6875,-13.8436,-10.3552,-15.2819,-17.0897,-17.3169,-11.1290,-12.0157,-14.1147,-5.0134,-7.9334,-7.4842,-10.7620,-11.6729,-10.3569,-8.7360,-11.9887,-6.6771,-9.6634,-12.9034
1933.5938,-14.7930,-11.5607,-15.7447,-16.4917,-17.0263,-11.7370,-13.7301,-10.9509,-6.0307,-8.7084,-7.7486,-10.7959,-11.3410,-9.3536,-9.4031,-11.0505,-6.9981,-9.8703,-12.9427
1937.5000,-14.1396,-11.3793,-14.4471,-14.2139,-14.7883,-11.5287,-13.7459,-7.0979,-5.3675,-8.6562,-7.2794,-9.9487,-9.4680,-6.6267,-9.3578,-9.6442,-5.9799,-8.6305,-11.4735
1941.4062,-12.1787,-9.7807,-11.6459,-11.0713,-11.2015,-10.6142,-11.8321,-3.8321,-3.2526,-8.1054,-6.3286,-8.5559,-6.8990,-3.4021,-8.5710,-8.3578,-4.2763,-6.6293,-8.8240
1945.3125,-9.7922,-7.4002,-8.3734,-8.3070,-7.4567,-9.3065,-8.6035,-2.1375,-0.5744,-7.5676,-5.3296,-7.2298,-4.8523,-1.2502,-7.3036,-7.7830,-2.9606,-4.8691,-5.9465
1949.2188,-7.9665,-5.2068,-5.9450,-6.9479,-4.7646,-7.9534,-5.1960,-2.2888,1.5726,-7.3816,-4.6821,-6.5575,-4.3042,-1.2226,-6.0577,-8.2159,-2.9119,-4.1046,-3.9765
1953.1250,-7.3271,-4.0212,-5.3043,-7.3100,-3.8475,-6.8246,-2.6998,-3.7900,2.4088,-7.5450,-4.5974,-6.8376,-5.5644,-3.3589,-5.4104,-9.5407,-4.3607,-4.4917,-3.7038
1957.0312,-7.9204,-4.1428,-6.5590,-8.9180,-4.7339,-6.0848,-1.6785,-5.6761,1.7899,-7.8170,-5.0499,-7.9700,-8.2255,-6.8016,-5.7547,-11.3286,-6.8303,-5.6215,-5.2203
1960.9375,-9.3014,-5.2732,-8.9519,-10.8435,-6.8830,-5.8163,-2.0135,-7.0031,0.1904,-7.9675,-5.8204,-9.5260,-11.4323,-10.3585,-7.0563,-13.0460,-9.4484,-6.8539,-7.9040
1964.8438,-10.8169,-6.7372,-11.2655,-12.2276,-9.4920,-6.0312,-3.0912,-7.2757,-1.5942,-7.9601,-6.5882,-10.9415,-14.2672,-13.1137,-8.7787,-14.2317,-11.3952,-7.6997,-10.7240
1968.7500,-11.9017,-7.8458,-12.4194,-12.6706,-11.7917,-6.6461,-4.1572,-6.6135,-2.8360,-7.9254,-7.0392,-11.7391,-16.0488,-14.7298,-10.0759,-14.5765,-12.2225,-8.0112,-12.6964
1972.6562,-12.2507,-8.1892,-11.9387,-12.2984,-13.2245,-7.4487,-4.6247,-5.5965,-3.1522,-7.9668,-6.9651,-11.6893,-16.4619,-15.3515,-10.2031,-13.9418,-11.9198,-7.9091,-13.2700
1976.5625,-11.8379,-7.7309,-10.0743,-11.5297,-13.5159,-8.1086,-4.2211,-4.8961,-2.5711,-7.9798,-6.3376,-10.8597,-15.5533,-15.2927,-8.9386,-12.3880,-10.7811,-7.5640,-12.4803
1980.4688,-10.8390,-6.7087,-7.5728,-10.7453,-12.7000,-8.2663,-2.9985,-4.8936,-1.4110,-7.6592,-5.3271,-9.5516,-13.6661,-14.7806,-6.7614,-10.2244,-9.2182,-7.0261,-10.8362
1984.3750,-9.5304,-5.4581,-5.2754,-10.0833,-11.1192,-7.6791,-1.2873,-5.4889,-0.0847,-6.7158,-4.2447,-8.1606,-11.3457,-13.9130,-4.6420,-8.0101,-7.6315,-6.2299,-9.0319
1988.2812,-8.2058,-4.2721,-3.7731,-9.4588,-9.3579,-6.3530,0.3731,-6.1915,1.0655,-5.1477,-3.4127,-7.0230,-9.2034,-12.7787,-3.5357,-6.4157,-6.3474,-5.1425,-7.6383
1992.1875,-7.1143,-3.3452,-3.2597,-8.7411,-8.0585,-4.5818,1.3624,-6.4330,1.8485,-3.3498,-3.0183,-6.3054,-7.7318,-11.5620,-3.8614,-5.9499,-5.5682,-3.9084,-6.9106
1996.0938,-6.4095,-2.7724,-3.5800,-7.9187,-7.6469,-2.8578,1.2034,-5.9096,2.2275,-1.9478,-3.0265,-5.9747,-7.1225,-10.4973,-5.2764,-6.6816,-5.3033,-2.8523,-6.7688
2000.0000,-6.1195,-2.5506,-4.3770,-7.1189,-8.0903,-1.6832,-0.1784,-4.7477,2.2804,-1.4452,-3.2089,-5.8457,-7.1789,-9.6897,-6.8859,-8.1431,-5.3186,-2.3123,-6.9156
2003.9062,-6.1515,-2.5735,-5.2359,-6.4747,-8.8444,-1.3685,-2.3180,-3.3926,2.1448,-1.9140,-3.2777,-5.6720,-7.3948,-8.9512,-7.7542,-9.5164,-5.1778,-2.4138,-6.9991
2007.8125,-6.3369,-2.6496,-5.7836,-5.9563,-9.0653,-1.9109,-4.3492,-2.2951,1.9631,-2.9355,-3.0442,-5.2339,-7.1748,-7.8077,-7.3991,-10.0197,-4.4070,-2.9468,-6.7304
2011.7188,-6.4933,-2.5758,-5.7531,-5.3155,-8.0056,-3.0098,-5.4133,-1.6092,1.8376,-3.8341,-2.5004,-4.3933,-6.0876,-5.7169,-5.9740,-9.2717,-2.7226,-3.4439,-5.9244
2015.6250,-6.4685,-2.2455,-5.0371,-4.2139,-5.3925,-4.2060,-5.1282,-1.1123,1.8095,-4.0473,-1.7761,-3.1167,-4.0270,-2.3871,-4.0552,-7.4214,-0.2014,-3.4257,-4.4921
2019.5312,-6.1530,-1.7212,-3.7241,-2.4678,-1.5871,-5.0731,-3.8145,-0.4132,1.8679,-3.3972,-1.0085,-1.4869,-1.2251,1.9831,-2.2165,-4.9885,2.7060,-2.6705,-2.4472
2023.4375,-5.4758,-1.2071,-2.0904,-0.2541,2.5561,-5.3688,-2.3024,0.6913,1.9811,-2.1145,-0.2331,0.2821,1.8428,6.6799,-0.6955,-2.5602,5.3269,-1.3491,0.0424
2027.3438,-4.4217,-0.9225,-0.5312,1.8743,6.0385,-5.0829,-1.4175,1.9684,2.1208,-0.6428,0.6144,1.8448,4.5804,10.6811,0.6283,-0.5590,6.9947,0.0483,2.5921
2031.2500,-3.0753,-0.9619,0.5526,3.1997,8.0881,-4.3768,-1.4775,2.8120,2.2560,0.6148,1.5776,2.7769,6.3745,13.0000,1.9663,0.7932,7.2467,0.9488,4.6114
2035.1562,-1.6573,-1.2423,0.8687,3.1808,8.3830,-3.4657,-2.1411,2.6083,2.3211,1.4413,2.5370,2.7095,6.7020,13.0244,3.2972,1.3731,5.9304,0.9660,5.4566
2039.0625,-0.4914,-1.5772,0.3092,1.7397,7.0676,-2.5139,-2.7056,1.1765,2.1953,1.7941,3.1741,1.5155,5.2802,10.7286,4.2553,1.0880,3.2262,0.0699,4.7035
2042.9688,0.1230,-1.8131,-1.0211,-0.6633,4.6198,-1.5940,-2.6332,-1.0188,1.7355,1.7147,3.1085,-0.5432,2.2411,6.6922,4.3384,-0.0399,-0.3778,-1.4137,2.4118
2046.8750,0.0837,-1.9142,-2.8187,-3.2141,1.6662,-0.7124,-1.9192,-3.0535,0.8675,1.2751,2.1479,-2.8196,-1.7793,1.9190,3.2995,-1.6945,-4.1530,-2.9533,-0.7919
2050.7812,-0.4071,-1.9277,-4.6326,-5.0961,-1.1795,0.1344,-1.0427,-4.0391,-0.3163,0.6056,0.4900,-4.4897,-5.7616,-2.4898,1.4384,-3.1918,-7.2699,-4.0336,-3.9172
2054.6875,-0.8976,-1.8659,-5.9652,-5.8341,-3.4388,0.9199,-0.5537,-3.6253,-1.5332,-0.0546,-1.2778,-4.9015,-8.6605,-5.7036,-0.4370,-3.6818,-9.0274,-4.3484,-6.0376
2058.5938,-0.9078,-1.6269,-6.4237,-5.4667,-4.8560,1.5853,-0.6232,-2.1949,-2.4085,-0.3868,-2.4206,-3.8980,-9.8575,-7.4299,-1.3930,-2.5949,-9.1184,-3.8950,-6.7273
2062.5000,-0.2033,-1.0466,-5.8835,-4.4743,-5.4378,2.0673,-0.9036,-0.6275,-2.6651,-0.1345,-2.4232,-1.9261,-9.4539,-7.9577,-0.8772,-0.0734,-7.7978,-2.9456,-6.2521
2066.4062,1.0471,-0.0627,-4.5802,-3.5137,-5.4154,2.3284,-0.8010,0.2153,-2.2978,0.7163,-1.2745,0.1547,-8.2046,-7.9395,0.9584,2.9343,-5.8208,-1.9176,-5.3861
2070.3125,2.3400,1.1406,-3.0490,-3.0990,-5.1150,2.3692,0.0536,-0.0405,-1.6184,1.8608,0.5035,1.4839,-7.0958,-8.0073,3.3177,5.0616,-4.1259,-1.2050,-4.9472
2074.2188,3.1049,2.1487,-1.9056,-3.3824,-4.7838,2.2221,1.4911,-1.1351,-1.1237,2.7896,2.1040,1.6139,-6.8004,-8.4176,5.1718,5.2263,-3.3915,-1.0412,-5.3244
2078.1250,3.0133,2.5189,-1.5662,-4.1305,-4.4698,1.9384,2.8782,-2.4132,-1.2533,3.0485,2.8262,0.6996,-7.3327,-8.9222,5.7801,3.2457,-3.6996,-1.4448,-6.2815
2082.0312,2.1454,2.0433,-2.0679,-4.8894,-4.0377,1.5786,3.5072,-3.2665,-2.1716,2.4848,2.3935,-0.6386,-8.0979,-8.9374,5.0322,-0.0136,-4.4980,-2.2595,-7.1485
2085.9375,0.9199,0.8825,-3.0996,-5.2403,-3.3164,1.2038,3.0074,-3.4864,-3.6976,1.3189,1.0382,-1.6834,-8.2825,-7.9079,3.4413,-3.0572,-4.8939,-3.2510,-7.2654
2089.8438,-0.1535,-0.5367,-4.2234,-5.0080,-2.2743,0.8603,1.4963,-3.3221,-5.4128,-0.0057,-0.6672,-1.9945,-7.3226,-5.6457,1.8253,-4.5132,-4.1152,-4.2007,-6.3834
2093.7500,-0.7370,-1.7896,-5.1319,-4.3166,-1.0819,0.5614,-0.5889,-3.2379,-6.8677,-1.0884,-2.1124,-1.5736,-5.1660,-2.4401,0.8792,-3.7836,-1.8927,-4.9489,-4.7738
2097.6562,-0.7899,-2.6911,-5.7656,-3.4729,-0.0000,0.2833,-2.7921,-3.5508,-7.7641,-1.7778,-2.9157,-0.7485,-2.2116,1.1102,0.8675,-1.2482,1.4314,-5.3837,-2.9967
2101.5625,-0.5088,-3.3300,-6.2199,-2.7553,0.8342,-0.0081,-4.8206,-4.1848,-8.0215,-2.1943,-3.0289,0.1056,0.9641,4.4167,1.5733,2.0357,5.0895,-5.4162,-1.5177
2105.4688,-0.1573,-3.8911,-6.5368,-2.2387,1.5524,-0.3075,-6.5002,-4.6876,-7.7286,-2.5816,-2.6702,0.8017,3.8723,7.1566,2.4827,4.9071,8.2351,-4.9873,-0.4470
2109.3750,0.0856,-4.4270,-6.5708,-1.7689,2.4934,-0.5343,-7.6217,-4.4913,-7.0525,-3.1132,-2.1620,1.3741,6.2050,9.3104,3.0717,6.6045,10.2542,-4.1224,0.4271
2113.2812,0.1708,-4.7824,-6.0602,-1.1045,3.9399,-0.5544,-7.8888,-3.2620,-6.1822,-3.7914,-1.7802,1.9162,7.7649,10.9884,3.0405,6.9584,10.9073,-2.9947,1.3621
2117.1875,0.1268,-4.7430,-4.8681,-0.1394,5.8263,-0.2659,-7.0741,-1.1423,-5.3307,-4.4915,-1.6835,2.3713,8.3695,12.1998,2.3961,6.2598,10.2888,-1.9345,2.3663
2121.0938,-0.0156,-4.2833,-3.2030,0.9455,7.6384,0.2989,-5.2709,1.2482,-4.7523,-5.0876,-1.9233,2.4629,7.8629,12.7445,1.3814,4.9733,8.6854,-1.3435,3.1147
2125.0000,-0.2503,-3.6904,-1.6218,1.7198,8.6204,0.9392,-3.0000,3.0668,-4.7129,-5.5503,-2.4912,1.8379,6.2439,12.3144,0.3190,3.4948,6.4382,-1.5348,3.1414
2128.9062,-0.5621,-3.4238,-0.7619,1.7347,8.1962,1.3699,-1.0175,3.6448,-5.3937,-5.9436,-3.3528,0.3367,3.7927,10.7307,-0.5388,2.0647,3.8704,-2.5792,2.1712
2132.8125,-0.8822,-3.7851,-0.9581,0.8207,6.3519,1.3985,0.0973,2.8347,-6.7735,-6.3394,-4.4425,-1.8048,1.0605,8.1511,-1.0857,0.8167,1.2795,-4.2466,0.3550
2136.7188,-1.0879,-4.6410,-1.9973,-0.7361,3.7286,1.0805,0.2943,1.1233,-8.5747,-6.7310,-5.6325,-3.9785,-1.3132,5.0967,-1.3451,-0.1331,-1.0443,-6.0834,-1.7526
2140.6250,-1.0578,-5.4313,-3.1915,-2.2717,1.3414,0.7341,0.0751,-0.5756,-10.3293,-7.0143,-6.7085,-5.4644,-2.8538,2.2677,-1.3929,-0.6394,-2.8177,-7.5877,-3.4563
2144.5312,-0.7385,-5.4951,-3.7386,-3.0581,0.0764,0.7717,0.1473,-1.3732,-11.5521,-7.0426,-7.3883,-5.7800,-3.4156,0.2485,-1.2756,-0.5555,-3.8039,-8.3917,-4.2484
2148.4375,-0.1651,-4.5084,-3.1547,-2.6850,0.2513,1.4377,0.9375,-0.8790,-11.9340,-6.7049,-7.3994,-4.9107,-3.1667,-0.7324,-0.9781,0.1897,-3.8877,-8.3656,-4.0066
2152.3438,0.5814,-2.7319,-1.5206,-1.2842,1.4871,2.6210,2.3014,0.5730,-11.4582,-5.9660,-6.5977,-3.2904,-2.4288,-0.8610,-0.4594,1.5066,-3.1520,-7.6121,-2.9730
2156.2500,1.4408,-0.8907,0.5843,0.5425,2.9518,3.8833,3.6242,2.1027,-10.3827,-4.8543,-5.0770,-1.5559,-1.5006,-0.5933,0.2711,3.1019,-1.9039,-6.3827,-1.5730
2160.1562,2.3990,0.2413,2.3898,2.0539,3.8197,4.7038,4.2271,2.7921,-9.1110,-3.4318,-3.2013,-0.2327,-0.5683,-0.3931,1.0950,4.5147,-0.6065,-4.9782,-0.2131
2164.0625,3.4430,0.2752,3.2883,2.7640,3.6879,4.7926,3.7852,2.2367,-8.0242,-1.7897,-1.5133,0.4715,0.2792,-0.4887,1.8001,5.2536,0.2918,-3.6753,0.8373
2167.9688,4.4789,-0.6127,3.0514,2.6678,2.7353,4.2664,2.4829,0.7974,-7.3552,-0.0759,-0.5283,0.6749,1.0031,-0.7660,2.1782,5.0066,0.5693,-2.6835,1.4640
2171.8750,5.2927,-1.8446,1.8479,2.1777,1.5730,3.5683,0.8393,-0.6237,-7.1454,1.4823,-0.4976,0.6710,1.6044,-0.8398,2.1545,3.8368,0.3703,-2.1112,1.6837
2175.7812,5.6097,-2.8050,0.1226,1.8325,0.8987,3.1837,-0.6276,-1.1561,-7.2784,2.6124,-1.2685,0.7397,2.1552,-0.2621,1.8612,2.2417,0.1664,-1.9332,1.6290
2179.6875,5.2394,-3.1518,-1.5661,1.9755,1.1527,3.3449,-1.6444,-0.5165,-7.5573,3.0958,-2.3391,1.0304,2.8085,1.2392,1.5888,0.9917,0.5220,-1.9817,1.5379
2183.5938,4.2170,-2.9022,-2.6917,2.6040,2.3424,3.9199,-2.1961,0.8260,-7.7926,2.8841,-3.1094,1.5528,3.7308,3.6069,1.6241,0.7823,1.7710,-1.9979,1.7044
2187.5000,2.8425,-2.3015,-2.8843,3.4563,4.0989,4.5484,-2.3673,1.9955,-7.8799,2.1547,-3.2078,2.2334,4.9768,6.4636,2.0624,1.8658,3.7926,-1.7521,2.3632
2191.4062,1.5702,-1.6266,-2.0439,4.2424,5.9038,4.9137,-2.1895,2.3356,-7.8513,1.2534,-2.7071,2.9695,6.3965,9.2753,2.7190,3.8803,6.0362,-1.1873,3.5501
2195.3125,0.8021,-1.0767,-0.4114,4.8365,7.3546,4.9483,-1.6315,1.8842,-7.8812,0.5437,-2.0906,3.6461,7.6649,11.5827,3.2097,6.0015,7.7992,-0.5006,5.0255
2199.2188,0.7003,-0.7905,1.4633,5.2955,8.3267,4.8304,-0.7169,1.3548,-8.2266,0.2417,-1.9708,4.1285,8.4377,13.1711,3.1694,7.3545,8.5922,-0.0906,6.3321
2203.1250,1.1266,-0.9068,2.8920,5.7146,8.9569,4.7889,0.3646,1.6259,-9.1056,0.3247,-2.7187,4.2677,8.5309,14.0879,2.4765,7.4507,8.3645,-0.3694,6.9750
2207.0312,1.7393,-1.5582,3.3113,6.0567,9.4744,4.8770,1.2825,3.0861,-10.5571,0.5624,-4.2303,3.9415,8.0000,14.5058,1.3402,6.3906,7.4488,-1.5284,6.6336
2210.9375,2.1860,-2.7704,2.5200,6.1111,9.9928,4.8939,1.7381,5.2972,-12.3526,0.6469,-5.9746,3.1123,7.0639,14.5332,0.1854,4.7256,6.2792,-3.3894,5.2938
2214.8438,2.2768,-4.3456,0.7678,5.6360,10.4033,4.5212,1.6660,7.2246,-14.0301,0.3499,-7.2986,1.8657,5.9444,14.1074,-0.5948,3.0894,5.0930,-5.4383,3.2433
2218.7500,2.0475,-5.8499,-1.3476,4.5886,10.4468,3.5777,1.3151,7.8903,-15.0593,-0.3669,-7.7930,0.3990,4.7528,13.0513,-0.8607,1.8590,3.8317,-7.0398,0.9597
2222.6562,1.6932,-6.7557,-3.1150,3.2655,9.9251,2.2088,1.1381,7.0094,-15.0739,-1.3320,-7.4894,-1.0319,3.5094,11.2568,-0.7740,1.0577,2.3019,-7.7246,-1.0369
2226.5625,1.4324,-6.6785,-3.9567,2.2229,8.9030,0.8697,1.5512,5.1798,-14.0534,-2.2319,-6.7685,-2.1796,2.2615,8.8590,-0.6438,0.5248,0.4561,-7.3957,-2.3083
2230.4688,1.3920,-5.5704,-3.5927,1.9951,7.7446,0.1069,2.7011,3.5011,-12.3489,-2.7307,-6.0570,-2.8547,1.1751,6.2617,-0.6797,0.1746,-1.4403,-6.3460,-2.5864
2234.3750,1.5773,-3.7528,-2.0927,2.7777,6.9286,0.2757,4.3663,2.8886,-10.5251,-2.5940,-5.5253,-2.9492,0.4957,3.9747,-0.8282,0.1196,-2.9030,-5.0811,-1.8414
2238.2812,1.9292,-1.7721,0.1597,4.2812,6.7503,1.3699,6.0368,3.5390,-9.0943,-1.7721,-4.9970,-2.4448,0.3911,2.3606,-0.8110,0.5558,-3.5286,-4.0525,-0.3185
2242.1875,2.4160,-0.1574,2.5670,5.8625,7.1206,3.0549,7.1298,4.8880,-8.2814,-0.4149,-4.1239,-1.4180,0.8039,1.4654,-0.3429,1.5147,-3.2795,-3.4444,1.5001
2246.0938,3.0897,0.7952,4.4819,6.8692,7.6226,4.8642,7.2492,6.0514,-7.9453,1.1893,-2.6982,-0.0377,1.4513,1.0562,0.6261,2.7077,-2.5324,-3.1211,3.0482
2250.0000,4.0673,1.1217,5.4273,6.9955,7.8155,6.4254,6.3823,6.4265,-7.6933,2.7277,-0.8711,1.4634,2.0000,0.8463,1.8230,3.6222,-1.8390,-2.7457,3.9159
2253.9062,5.4495,1.1466,5.3109,6.4399,7.5793,7.5877,4.9486,6.0510,-7.1173,3.9839,0.8833,2.8533,2.2990,0.7491,2.7952,3.8343,-1.5588,-1.9893,4.0587
2257.8125,7.2265,1.3296,4.5190,5.7767,7.2436,8.4030,3.6512,5.5158,-6.0147,4.9116,2.0485,3.9874,2.4935,0.9767,3.2023,3.3214,-1.6186,-0.7111,3.8348
2261.7188,9.2325,2.0624,3.7818,5.6268,7.3809,9.0087,3.1615,5.5336,-4.4746,5.6249,2.4044,4.8734,2.9252,1.9010,3.0623,2.5403,-1.5635,0.9793,3.8085
2265.6250,11.1742,3.4848,3.8228,6.3231,8.3872,9.5005,3.7618,6.4796,-2.7989,6.3112,2.1961,5.6715,3.8878,3.7697,2.7785,2.1922,-0.8569,2.7934,4.4144
2269.5312,12.7152,5.3887,4.9539,7.7571,10.1493,9.8622,5.1376,8.1881,-1.3265,7.1098,2.0088,6.6154,5.4178,6.4723,2.9118,2.8195,0.7807,4.4111,5.6864
2273.4375,13.5693,7.2594,6.8613,9.4731,12.0543,9.9673,6.4741,10.0914,-0.2783,8.0145,2.4166,7.8813,7.2747,9.5282,3.8263,4.4920,3.2176,5.6160,7.2356
2277.3438,13.5561,8.4588,8.7422,10.9291,13.3634,9.6295,6.8613,11.5547,0.2872,8.8472,3.6159,9.4702,9.1146,12.3111,5.4238,6.7753,6.0154,6.3512,8.5043
2281.2500,12.6077,8.4878,9.7428,11.7643,13.7009,8.6738,5.8094,12.1809,0.4048,9.3111,5.2704,11.1629,10.7135,14.3668,7.1336,8.9768,8.6876,6.6812,9.1274
2285.1562,10.7543,7.2082,9.4426,11.9323,13.3124,7.0165,3.5709,11.9273,0.0957,9.1001,6.6611,12.5772,12.0594,15.6138,8.1722,10.4887,10.9138,6.7011,9.1559
2289.0625,8.1249,4.9088,8.0830,11.6549,12.8980,4.7411,1.0473,11.0381,-0.6783,8.0249,7.0597,13.3082,13.2502,16.3057,7.9331,11.0151,12.5822,6.4599,8.9868
2292.9688,4.9753,2.1802,6.3981,11.2573,13.1293,2.1457,-0.6924,9.8940,-1.9552,6.1136,6.1124,13.0896,14.2917,16.7933,6.2956,10.5846,13.6763,5.9448,9.0545
2296.8750,1.7112,-0.3334,5.1614,10.9940,14.1876,-0.2840,-0.9950,8.8824,-3.6498,3.6519,4.0255,11.9098,14.9770,17.2592,3.6902,9.4138,14.1404,5.1337,9.5052
2300.7812,-1.1504,-2.1670,4.7470,10.9530,15.6413,-2.0013,0.0533,8.3159,-5.4740,1.1373,1.4601,10.0276,14.9622,17.6005,0.8996,7.7631,13.8510,4.0714,10.0872
2304.6875,-3.1111,-3.1405,4.9787,11.0600,16.7377,-2.6023,1.7606,8.3678,-6.9890,-0.8569,-0.7945,7.8808,13.9935,17.5206,-1.2966,5.8819,12.7149,2.9115,10.3269
2308.5938,-3.8782,-3.3180,5.3316,11.1505,16.8866,-2.0174,3.3092,9.0052,-7.7936,-1.8792,-2.1876,5.9229,12.1150,16.7439,-2.4481,4.0241,10.8027,1.8819,9.8573
2312.5000,-3.5106,-2.8986,5.3159,11.0511,15.9926,-0.5816,4.2403,9.9529,-7.7495,-1.7852,-2.6233,4.4606,9.6958,15.1917,-2.5787,2.4487,8.3934,1.1815,8.6582
2316.4062,-2.4208,-2.1335,4.7697,10.6327,14.4214,1.0801,4.6241,10.7488,-7.0960,-0.8197,-2.4286,3.5629,7.2473,13.0048,-2.0941,1.3509,5.8824,0.8657,7.0479
2320.3125,-1.2008,-1.3072,3.8856,9.8270,12.6670,2.3146,4.8378,10.9134,-6.3563,0.4708,-2.1104,3.0827,5.1582,10.4198,-1.5162,0.7651,3.6118,0.7943,5.4495
2324.2188,-0.3501,-0.7347,3.0010,8.6191,10.9937,2.7206,5.1650,10.1654,-6.0627,1.4778,-2.0482,2.7742,3.5281,7.6146,-1.1884,0.5436,1.7383,0.6876,4.1125
2328.1250,-0.0580,-0.7048,2.3380,7.0343,9.3159,2.2987,5.5400,8.5599,-6.4506,1.8159,-2.2939,2.4370,2.1980,4.6515,-1.1078,0.4645,0.2238,0.2736,2.9892
2332.0312,-0.1708,-1.3562,1.8820,5.1295,7.3753,1.3906,5.6200,6.4554,-7.3084,1.4993,-2.5854,2.0075,0.9323,1.5610,-0.9710,0.4114,-1.0608,-0.5522,1.8328
2335.9375,-0.3602,-2.5623,1.4543,2.9923,5.0437,0.4527,5.0990,4.3235,-8.0908,0.9043,-2.5532,1.5501,-0.3943,-1.5061,-0.4059,0.4802,-2.2024,-1.6519,0.4251
2339.8438,-0.3758,-3.9348,0.8859,0.7481,2.5031,-0.1961,3.9895,2.5196,-8.2435,0.5323,-1.9899,1.1708,-1.7291,-4.1939,0.7427,0.9019,-3.1734,-2.7073,-1.2385
2343.7500,-0.2086,-4.9899,0.1453,-1.4304,0.1744,-0.5051,2.6420,1.1590,-7.5470,0.7085,-1.0133,0.9229,-2.9104,-6.0200,2.2505,1.8159,-3.8559,-3.3924,-2.9264
2347.6562,-0.0533,-5.3954,-0.6608,-3.3259,-1.5287,-0.6392,1.4970,0.1597,-6.2629,1.4015,-0.0158,0.7765,-3.7900,-6.5995,3.5871,3.0662,-4.1261,-3.5530,-4.3032
2351.5625,-0.1074,-5.1427,-1.3827,-4.7100,-2.4244,-0.8036,0.7781,-0.6075,-4.9807,2.2702,0.5742,0.6704,-4.3044,-5.8880,4.2022,4.2018,-3.9375,-3.2842,-5.1103
2355.4688,-0.3669,-4.5238,-1.9252,-5.4135,-2.6155,-1.0799,0.3715,-1.1911,-4.2529,2.9032,0.5722,0.5958,-4.4616,-4.2810,3.8623,4.7226,-3.3560,-2.8541,-5.2794
2359.3750,-0.5843,-3.9292,-2.2790,-5.4116,-2.3716,-1.3863,-0.0310,-1.5493,-4.2504,3.0884,0.1726,0.6320,-4.2872,-2.4835,2.8221,4.4114,-2.5411,-2.5240,-4.9358
2363.2812,-0.4370,-3.6144,-2.4888,-4.8734,-1.9660,-1.5767,-0.6650,-1.6464,-4.6679,2.9303,-0.1607,0.8905,-3.8008,-1.1921,1.7040,3.5017,-1.6938,-2.3890,-4.3192
2367.1875,0.2099,-3.5976,-2.6100,-4.1232,-1.5846,-1.5859,-1.5294,-1.5538,-4.9485,2.7405,0.0046,1.4035,-3.0433,-0.7504,1.1363,2.5338,-0.9915,-2.3463,-3.6821
2371.0938,1.1430,-3.7416,-2.6893,-3.5018,-1.3229,-1.4984,-2.4435,-1.4475,-4.6838,2.7810,0.7668,2.0482,-2.1105,-0.9680,1.3693,1.9804,-0.5200,-2.2107,-3.1967
2375.0000,1.8788,-3.9221,-2.7567,-3.1840,-1.1954,-1.4805,-3.2405,-1.4842,-3.9119,3.0445,1.7894,2.5875,-1.1298,-1.2077,2.1181,1.9123,-0.2199,-1.8858,-2.8827
2378.9062,1.9469,-4.1204,-2.7983,-3.0539,-1.0960,-1.6251,-3.8987,-1.6464,-3.0921,3.2324,2.4889,2.8200,-0.1706,-0.7063,2.7489,1.9625,0.1255,-1.4523,-2.5692
2382.8125,1.1964,-4.3562,-2.7100,-2.7308,-0.7446,-1.8373,-4.4807,-1.6831,-2.7541,2.9595,2.4056,2.7410,0.8451,1.0422,2.6988,1.6352,0.8338,-1.0916,-1.9279
2386.7188,-0.0811,-4.5329,-2.2819,-1.7556,0.2762,-1.8640,-4.9422,-1.2127,-3.0585,2.0542,1.5256,2.5858,2.1428,4.0430,1.8578,0.7398,2.1947,-0.8948,-0.6094
2390.6250,-1.2931,-4.3681,-1.2707,0.1529,2.3326,-1.4643,-5.0075,0.0630,-3.6017,0.7557,0.3325,2.6997,3.9667,7.8241,0.6614,-0.3768,4.3186,-0.7143,1.5470
2394.5312,-1.8555,-3.5304,0.4453,2.9181,5.4816,-0.6001,-4.2686,2.1717,-3.6582,-0.3381,-0.4625,3.3027,6.3884,11.6971,-0.1733,-0.9936,7.0379,-0.2089,4.3369
2398.4375,-1.4662,-1.9296,2.7187,6.1152,9.3307,0.5031,-2.4717,4.8295,-2.7538,-0.5582,-0.3596,4.3070,9.1749,15.0908,-0.0900,-0.4751,9.9245,0.8951,7.1822
2402.3438,-0.1842,0.0485,5.1098,9.1629,13.1629,1.4944,0.2232,7.5704,-1.2005,0.4691,0.5939,5.3259,11.8159,17.7561,0.9769,1.2935,12.4236,2.4817,9.3442
2406.2500,1.6942,1.5828,7.0410,11.5780,16.2870,2.1526,3.2285,9.9516,-0.1830,2.5890,1.7876,5.8850,13.7060,19.7294,2.5962,3.8081,14.0384,3.9052,10.2667
2410.1562,3.8299,1.7788,8.0507,13.1316,18.3776,2.5741,5.8012,11.6994,-1.2345,5.1525,2.3709,5.7080,14.3791,21.1053,4.1371,6.2518,14.4761,4.1997,9.8484
2414.0625,5.9478,0.1665,7.9905,13.8168,19.5448,3.1376,7.4156,12.7145,-5.3319,7.3003,1.7260,4.8834,13.6686,21.7967,5.1486,7.9818,13.6974,2.5812,8.4589
2417.9688,7.8030,-2.9740,7.0367,13.6791,20.0628,4.2368,7.9731,12.9615,-12.1345,8.3442,-0.1869,3.7988,11.7230,21.4710,5.5557,8.8488,11.8792,-1.0280,6.6793
2421.8750,9.0878,-6.6791,5.5203,12.6568,19.9646,5.9471,7.7135,12.3547,-19.8657,8.0477,-2.8064,2.8851,8.9060,19.7302,5.5672,9.1421,9.3396,-5.7916,4.9334
2425.7812,9.4229,-9.7408,3.7103,10.5762,18.8450,7.8612,6.9303,10.7449,-25.9943,6.6795,-5.2631,2.3456,5.6631,16.4230,5.4040,9.2409,6.4720,-10.2473,3.2634
2429.6875,8.5006,-11.2657,1.7110,7.3250,16.0850,9.2341,5.7368,8.0362,-28.3928,4.8393,-6.8006,2.0539,2.4219,11.8739,5.0870,9.2661,3.6927,-12.9744,1.4027
2433.5938,6.3053,-11.0367,-0.4680,3.0821,11.3839,9.3728,4.0685,4.3542,-26.3469,3.1691,-7.0855,1.6830,-0.4623,6.8496,4.4525,9.0060,1.3742,-13.2781,-0.9145
2437.5000,3.2387,-9.5037,-2.7565,-1.5792,5.2108,8.0334,1.8924,0.1412,-20.8548,2.0988,-6.2618,0.9643,-2.7485,2.2518,3.3690,8.1510,-0.2512,-11.5005,-3.6416
2441.4062,0.0159,-7.4619,-4.9406,-5.8309,-1.2042,5.5673,-0.5903,-3.9137,-14.0643,1.7306,-4.7751,-0.1126,-4.3611,-1.2918,1.9544,6.6203,-1.1859,-8.7827,-6.3461
2445.3125,-2.6479,-5.6463,-6.7439,-8.9246,-6.4181,2.7176,-2.9556,-7.1022,-8.1874,1.8735,-3.1185,-1.3029,-5.4253,-3.6892,0.5888,4.6901,-1.6935,-6.4290,-8.4369
2449.2188,-4.3845,-4.4712,-8.0145,-10.5337,-9.5411,0.1982,-4.8000,-8.9772,-4.5130,2.1724,-1.6579,-2.3030,-6.2374,-5.3412,-0.3219,2.8049,-2.2051,-5.2556,-9.5318
2453.1250,-5.3320,-4.0009,-8.8554,-10.8941,-10.7162,-1.6693,-6.0191,-9.5393,-3.0310,2.2513,-0.6022,-2.9938,-7.1438,-6.8294,-0.6634,1.2186,-3.1233,-5.2871,-9.7028
2457.0312,-6.0001,-4.0796,-9.5671,-10.6536,-10.9762,-3.0298,-6.8754,-9.2264,-2.7786,1.8219,-0.0671,-3.5491,-8.3710,-8.5401,-0.7630,-0.2323,-4.6156,-5.9271,-9.4204
2460.9375,-6.9234,-4.4744,-10.4183,-10.5168,-11.5612,-4.2513,-7.7693,-8.7008,-2.5913,0.7511,-0.1285,-4.3263,-9.8975,-10.4554,-1.2260,-2.0182,-6.5120,-6.4295,-9.2431
2464.8438,-8.3202,-4.9419,-11.4114,-10.8955,-13.1459,-5.5565,-8.8767,-8.5324,-1.7570,-0.8997,-0.7989,-5.6098,-11.4515,-12.2219,-2.5437,-4.5274,-8.3698,-6.3408,-9.4709
2468.7500,-9.9693,-5.2273,-12.2331,-11.7525,-15.4766,-6.8059,-9.9442,-8.9352,-0.2217,-2.8655,-1.9503,-7.3799,-12.6427,-13.4159,-4.7332,-7.6887,-9.6725,-5.6546,-10.0000
2472.6562,-11.3654,-5.0765,-12.4505,-12.7045,-17.6252,-7.5911,-10.4287,-9.6891,1.6553,-4.7216,-3.2688,-9.2653,-13.1563,-13.8104,-7.2633,-10.9019,-10.0548,-4.6500,-10.4568
2476.5625,-12.0414,-4.3117,-11.8267,-13.2863,-18.6434,-7.5717,-9.9017,-10.2911,3.5098,-6.0058,-4.3168,-10.7129,-12.8960,-13.4740,-9.3318,-13.3490,-9.4444,-3.5997,-10.4882
2480.4688,-11.8482,-2.9475,-10.5298,-13.2070,-18.1563,-6.8086,-8.4238,-10.2592,5.2158,-6.3994,-4.7010,-11.2727,-12.0072,-12.6705,-10.3204,-14.4748,-8.0650,-2.5853,-9.9913
2484.3750,-11.0300,-1.2575,-9.0758,-12.4651,-16.5207,-5.8376,-6.5972,-9.4298,6.8301,-5.8945,-4.2605,-10.8275,-10.7860,-11.6702,-10.1376,-14.3010,-6.3301,-1.5328,-9.1324
2488.2812,-10.0692,0.2847,-8.0341,-11.2964,-14.5092,-5.4027,-5.2326,-8.0827,8.3678,-4.8460,-3.1622,-9.6414,-9.5463,-10.6280,-9.2386,-13.3666,-4.6980,-0.3912,-8.1795
2492.1875,-9.4138,1.1939,-7.6937,-10.0316,-12.8026,-6.0044,-4.8493,-6.8147,9.6569,-3.8493,-1.8363,-8.2161,-8.5253,-9.6061,-8.3314,-12.3616,-3.5513,0.7266,-7.3067
2496.0938,-9.2515,1.2043,-7.9145,-8.9622,-11.6594,-7.5501,-5.3540,-6.2208,10.4228,-3.4785,-0.7799,-7.0511,-7.8599,-8.6928,-7.9705,-11.7356,-3.1282,1.5708,-6.5284
2500.0000,-9.4455,0.4213,-8.2549,-8.2721,-10.9486,-9.3400,-6.1168,-6.5553,10.5337,-4.0109,-0.3322,-6.4409,-7.6134,-8.0921,-8.2942,-11.5477,-3.4956,1.9259,-5.7978
2503.9062,-9.6418,-0.6926,-8.2771,-8.0273,-10.4431,-10.4136,-6.3893,-7.5671,10.1895,-5.2918,-0.5362,-6.4017,-7.8047,-8.0850,-9.0374,-11.6139,-4.5524,1.7828,-5.1636
2507.8125,-9.4723,-1.5021,-7.8163,-8.1855,-10.0988,-10.0598,-5.7782,-8.6155,9.8736,-6.8192,-1.1495,-6.7318,-8.4079,-8.8738,-9.7651,-11.7745,-6.0582,1.3705,-4.8300
2511.7188,-8.7389,-1.4681,-7.0406,-8.6038,-10.1020,-8.1935,-4.4680,-9.0108,10.0776,-8.0018,-1.7789,-7.1458,-9.3256,-10.4114,-10.1462,-12.0351,-7.6922,1.0209,-5.0481
2515.6250,-7.4992,-0.3798,-6.2827,-9.0559,-10.6710,-5.3916,-3.0696,-8.3931,10.9971,-8.4421,-2.0564,-7.4008,-10.3680,-12.3429,-10.0971,-12.4744,-9.1294,0.9738,-5.9044
2519.5312,-6.0267,1.5583,-5.7791,-9.2856,-11.7962,-2.5815,-2.2202,-6.9336,12.4217,-8.0878,-1.7712,-7.3629,-11.2691,-14.1112,-9.7395,-13.0326,-10.1143,1.2639,-7.1682
2523.4375,-4.6822,3.8195,-5.5030,-9.0997,-13.1325,-0.5759,-2.2057,-5.2443,13.8934,-7.1862,-0.9148,-7.0109,-11.7535,-15.1774,-9.2508,-13.4071,-10.5046,1.7544,-8.3283
2527.3438,-3.7632,5.7810,-5.1984,-8.4624,-14.1370,0.2817,-2.8275,-4.0523,14.9994,-6.1036,0.3466,-6.4083,-11.6410,-15.2436,-8.7329,-13.1933,-10.2839,2.2608,-8.8311
2531.2500,-3.4040,6.9701,-4.5875,-7.5377,-14.3652,0.1804,-3.5633,-3.8266,15.5700,-5.1433,1.7298,-5.6744,-10.9499,-14.3720,-8.1844,-12.1893,-9.5572,2.6453,-8.3904
2535.1562,-3.5678,7.2123,-3.6086,-6.6445,-13.7377,-0.3840,-3.8944,-4.5683,15.6449,-4.4696,2.8900,-4.9716,-9.9496,-12.9576,-7.5692,-10.6252,-8.5441,2.8135,-7.1865
2539.0625,-4.1238,6.6162,-2.5314,-6.1389,-12.6161,-0.9623,-3.5948,-5.8625,15.2726,-4.1493,3.4747,-4.4945,-9.1109,-11.5772,-6.9041,-9.1096,-7.5593,2.6480,-5.8283
2542.9688,-4.9542,5.4284,-1.8722,-6.2744,-11.6462,-1.4102,-2.8331,-7.1370,14.3455,-4.2286,3.1948,-4.4419,-8.9376,-10.7762,-6.2923,-8.2951,-6.9481,1.9840,-5.0839
2546.8750,-6.0212,3.8615,-2.1490,-7.1030,-11.4471,-1.9093,-2.0584,-7.9577,12.6413,-4.7580,1.9193,-4.9568,-9.7252,-10.8613,-5.8743,-8.4816,-6.9626,0.6901,-5.5121
2550.7812,-7.3509,2.0130,-3.6030,-8.4541,-12.2952,-2.7616,-1.7499,-8.1948,10.0540,-5.7359,-0.2372,-6.0517,-11.3551,-11.7606,-5.7358,-9.4324,-7.6155,-1.1915,-7.1830
2554.6875,-8.9501,-0.0844,-6.0364,-9.9932,-13.9471,-4.1078,-2.1691,-7.9940,6.8193,-7.0319,-2.8924,-7.5557,-13.2581,-13.0073,-5.8357,-10.5284,-8.6020,-3.3738,-9.6290
2558.5938,-10.7219,-2.3382,-8.8595,-11.3357,-15.6905,-5.7603,-3.2331,-7.6132,3.5181,-8.3741,-5.4838,-9.1299,-14.6156,-13.8769,-6.0054,-11.1453,-9.3749,-5.4232,-12.0537
2562.5000,-12.4453,-4.5165,-11.3373,-12.1796,-16.6254,-7.2640,-4.5699,-7.2537,0.8085,-9.4356,-7.4556,-10.3680,-14.7380,-13.6590,-6.0235,-10.9927,-9.3765,-6.9967,-13.6974
2566.4062,-13.8362,-6.2994,-12.9177,-12.4134,-16.0727,-8.1488,-5.7241,-6.9858,-0.9429,-9.9687,-8.4654,-10.9556,-13.4293,-11.9717,-5.7276,-10.2030,-8.3236,-8.0565,-14.1768
2570.3125,-14.6449,-7.4413,-13.4736,-12.1577,-13.9283,-8.2102,-6.4017,-6.7862,-1.8598,-9.8926,-8.5086,-10.8157,-11.1207,-8.9744,-5.1022,-9.1569,-6.3770,-8.8888,-13.6291
2574.2188,-14.7188,-7.9255,-13.3208,-11.7092,-10.7671,-7.6304,-6.6130,-6.6211,-2.4294,-9.2776,-7.8896,-10.1599,-8.6669,-5.3565,-4.2941,-8.2082,-4.0799,-9.8843,-12.5881
2578.1250,-13.9995,-7.9809,-12.9922,-11.3935,-7.6052,-6.8515,-6.6167,-6.4952,-3.1408,-8.2553,-7.0579,-9.4003,-6.9047,-2.0784,-3.5418,-7.5084,-2.0896,-11.2202,-11.6620
2582.0312,-12.4896,-7.9276,-12.8901,-11.3815,-5.4077,-6.2754,-6.6884,-6.4292,-4.1542,-6.9429,-6.3999,-8.9487,-6.2288,0.0260,-3.0536,-7.0135,-0.8635,-12.6736,-11.1951
2585.9375,-10.2593,-7.9465,-13.0218,-11.5658,-4.6019,-5.9874,-6.8590,-6.3998,-5.2414,-5.4476,-6.0959,-8.9998,-6.4454,0.5860,-2.8993,-6.6010,-0.4947,-13.7145,-11.1030
2589.8438,-7.5194,-7.9380,-12.9850,-11.5800,-4.8857,-5.6965,-6.8169,-6.3038,-6.0117,-3.9293,-6.0977,-9.4113,-6.9828,-0.1985,-2.9799,-6.1663,-0.7849,-13.8184,-10.9701
2593.7500,-4.7032,-7.5746,-12.2241,-10.9797,-5.4651,-4.9505,-6.0778,-5.9938,-6.2059,-2.6285,-6.2020,-9.7538,-7.3035,-1.7266,-3.0951,-5.6330,-1.4727,-12.7746,-10.3417
2597.6562,-2.4422,-6.5138,-10.4069,-9.5040,-5.5878,-3.4977,-4.3458,-5.3720,-5.7923,-1.7864,-6.1441,-9.5161,-7.2315,-3.3355,-3.0720,-4.9296,-2.4289,-10.7637,-9.0205
2601.5625,-1.3635,-4.6252,-7.6927,-7.2754,-5.0383,-1.5584,-1.8361,-4.4821,-4.7851,-1.4835,-5.6577,-8.3699,-6.9766,-4.6148,-2.8754,-4.0259,-3.6658,-8.1616,-7.1852
2605.4688,-1.7717,-2.0831,-4.7243,-4.8160,-4.2672,0.1895,0.6861,-3.5359,-2.9780,-1.5263,-4.5121,-6.3663,-6.8703,-5.5371,-2.6314,-3.0503,-5.1694,-5.2477,-5.2706
2609.3750,-3.4073,0.7137,-2.3504,-2.8493,-4.0637,0.9307,2.2282,-2.8436,0.0897,-1.5135,-2.5796,-3.9676,-7.0378,-6.3632,-2.5505,-2.3885,-6.7164,-2.0760,-3.7096
2613.2812,-5.4770,3.3046,-1.2418,-1.9832,-4.9832,0.1593,2.0945,-2.6732,4.7759,-1.0906,0.0424,-1.8938,-7.2691,-7.4063,-2.8021,-2.6161,-7.8638,1.3648,-2.7196
2617.1875,-7.0022,5.2884,-1.6134,-2.4305,-6.9103,-2.0123,0.2998,-3.1033,10.7696,-0.2342,2.9176,-0.8442,-7.1859,-8.7976,-3.4190,-4.2123,-8.1655,4.8318,-2.2636
2621.0938,-7.3100,6.3508,-3.1716,-3.9028,-9.0430,-4.8681,-2.3912,-3.9406,16.7645,0.6582,5.2944,-1.1980,-6.5546,-10.3671,-4.2778,-7.1793,-7.4731,7.6489,-2.1708
2625.0000,-6.3633,6.2632,-5.2638,-5.7174,-10.3006,-7.4153,-4.8384,-4.7505,20.7563,0.9960,6.3599,-2.8107,-5.4741,-11.6718,-5.1404,-10.8132,-6.0837,8.9038,-2.2795
2628.9062,-4.7034,4.9503,-7.1085,-7.0530,-9.8814,-8.8284,-6.0962,-5.0048,20.9571,0.4316,5.6666,-4.9899,-4.2642,-12.1350,-5.7066,-13.8266,-4.5802,7.9797,-2.4661
2632.8125,-3.0335,2.6356,-8.0030,-7.2359,-7.6213,-8.7643,-5.8490,-4.2989,16.8444,-0.7857,3.5027,-6.6850,-3.1307,-11.2325,-5.6444,-14.8272,-3.4358,5.0827,-2.5463
2636.7188,-1.7274,-0.0594,-7.4795,-5.9542,-3.9694,-7.4029,-4.4801,-2.5542,9.6582,-1.8268,0.9233,-6.8560,-1.8927,-8.6717,-4.6268,-12.9300,-2.6511,1.3539,-2.1787
2640.6250,-0.6130,-2.2319,-5.4366,-3.3458,0.3333,-5.2460,-2.7733,-0.1064,1.9261,-1.7249,-0.6884,-4.9087,-0.0368,-4.5221,-2.4311,-8.1924,-1.7051,-1.6158,-0.9337
2644.5312,0.8053,-3.0829,-2.2445,0.0440,4.6106,-2.8365,-1.4563,2.3856,-3.8096,-0.0016,-0.3701,-1.0275,2.8753,0.7383,0.8824,-1.6512,0.0965,-2.6461,1.4270
2648.4375,2.8451,-2.3964,1.2519,3.4161,8.4184,-0.5652,-0.8542,4.1983,-6.3452,2.9323,1.7760,3.7645,6.7142,6.2936,4.7975,5.0457,3.0746,-1.6866,4.6169
2652.3438,5.2441,-0.7924,3.9326,5.9521,11.4883,1.3667,-0.8122,4.8678,-6.4230,5.8945,4.4768,7.9079,10.5891,11.1841,8.3347,10.2284,6.7998,0.0852,7.7032
2656.2500,7.1857,0.4912,4.8144,7.0746,13.5939,2.8845,-0.8746,4.4184,-6.2008,7.5410,5.8752,9.8988,13.1675,14.5811,10.3280,12.7650,10.1688,0.9027,9.3844
2660.1562,7.7821,0.2475,3.5237,6.6519,14.5212,3.9778,-0.5782,3.3650,-7.8933,7.1115,4.5426,8.9404,13.3713,16.0470,9.9389,12.4009,11.9393,-0.5715,8.6035
2664.0625,6.7047,-1.9770,0.5625,5.0545,14.1942,4.6969,0.3039,2.4642,-12.4174,4.8528,0.3455,5.3449,11.0280,15.6703,7.1628,9.7995,11.4202,-4.4538,5.1800
2667.9688,4.5174,-5.5435,-2.8382,3.0156,12.8435,5.1835,1.6647,2.3336,-18.8628,1.8609,-5.3692,0.4615,7.0514,14.0111,3.0050,6.2995,8.8962,-9.5542,0.0669
2671.8750,2.4530,-9.0191,-5.2607,1.3366,11.0414,5.6592,3.1303,3.1425,-25.0763,-0.5533,-10.4242,-3.8765,3.0117,11.8780,-0.8610,3.4594,5.5174,-14.0362,-4.9742
2675.7812,1.7397,-10.9593,-5.7653,0.5673,9.5204,6.3316,4.2465,4.5478,-28.9546,-1.5749,-12.9479,-6.1436,0.3474,10.0328,-2.8487,2.5079,2.7079,-16.4114,-8.1543
2679.6875,2.8953,-10.7052,-4.3063,0.8164,8.8584,7.2564,4.7083,5.9089,-29.6233,-1.2477,-12.3445,-5.7703,-0.3123,8.9468,-2.2404,3.8760,1.4374,-16.2736,-8.4854
2683.5938,5.4323,-8.7092,-1.6669,1.7828,9.2231,8.2545,4.5355,6.6527,-27.8123,-0.3071,-9.5421,-3.3294,0.6736,8.6991,0.4466,7.0120,1.7756,-14.3760,-6.2079
2687.5000,8.1513,-6.2100,1.0229,2.9735,10.3351,8.9688,4.0963,6.5768,-25.2829,0.3579,-6.4013,-0.1756,2.3273,9.0392,3.7424,10.6107,2.9653,-12.0754,-2.5965
2691.4062,9.8289,-4.4946,2.8719,3.9768,11.6631,9.0550,3.9329,5.9230,-23.7483,0.2474,-4.6650,2.2575,3.6909,9.5687,6.0102,13.2091,3.9423,-10.5401,0.7256
2695.3125,9.8742,-4.2229,3.5734,4.6391,12.7227,8.4066,4.4455,5.2054,-23.9846,-0.5289,-5.0762,3.1336,4.3226,9.9611,6.2902,13.8844,3.9777,-10.2016,2.5743
2699.2188,8.5814,-5.2042,3.3601,5.0704,13.3025,7.2726,5.6037,4.9190,-25.6134,-1.4332,-7.1401,2.5270,4.3940,10.1309,4.7324,12.6905,3.0753,-10.7170,2.6834
2703.1250,6.8823,-6.6861,2.6930,5.5105,13.5135,6.1823,6.8838,5.3059,-27.5641,-1.9052,-9.5814,1.2537,4.4134,10.2808,2.4047,10.5783,1.9258,-11.3628,1.6689
2707.0312,5.7975,-7.8878,1.9508,6.1590,13.6737,5.6995,7.5232,6.2895,-28.8114,-1.7033,-11.1382,0.3607,4.8261,10.7977,0.6398,8.8379,1.4784,-11.5429,0.5715
2710.9375,5.9238,-8.4105,1.3218,7.0647,14.1188,6.1311,6.9823,7.5634,-28.9027,-0.9816,-11.1902,0.5732,5.7595,12.0269,0.3323,8.3877,2.3942,-11.0904,0.2694
2714.8438,7.2089,-8.3092,0.8939,8.1108,15.0378,7.3462,5.3327,8.7408,-28.0219,-0.1097,-9.9063,1.9818,7.0250,14.0223,1.5766,9.3310,4.6787,-10.2402,1.0757
2718.7500,9.0643,-7.8808,0.7792,9.0736,16.3869,8.8070,3.2995,9.4741,-26.6836,0.5988,-7.9383,4.0865,8.2954,16.4085,3.7817,11.0260,7.6679,-9.3777,2.6845
2722.6562,10.6869,-7.3945,1.1146,9.7118,17.8973,9.8039,1.8878,9.5256,-25.3539,1.0551,-5.9584,6.1165,9.2941,18.4635,6.1033,12.5760,10.3463,-8.7771,4.4301
2726.5625,11.4063,-6.9595,1.9312,9.8579,19.1665,9.7867,1.8037,8.8253,-24.2506,1.3734,-4.3548,7.4220,9.8795,19.4215,7.8830,13.3898,11.8160,-8.4896,5.6747
2730.4688,10.9224,-6.5668,3.0313,9.4959,19.8134,8.6312,3.0372,7.5369,-23.3758,1.7149,-3.2165,7.7404,10.0290,18.8625,8.8552,13.4485,11.6842,-8.3957,6.1151
2734.3750,9.3879,-6.1928,4.0273,8.8027,19.6475,6.7143,4.8827,6.0891,-22.6524,2.1328,-2.5045,7.2398,9.7951,16.9728,9.0842,13.1497,10.2014,-8.3299,5.8707
2738.2812,7.3387,-5.8404,4.5540,8.1148,18.7728,4.7574,6.3812,5.0877,-22.0099,2.5290,-2.2042,6.3704,9.2906,14.5068,8.7697,12.9067,8.1105,-8.1687,5.3437
2742.1875,5.5014,-5.4941,4.5036,7.7991,17.5539,3.5085,6.8858,5.0723,-21.3675,2.7411,-2.3262,5.6304,8.6920,12.4409,8.0974,12.8283,6.3015,-7.8438,4.9540
2746.0938,4.5249,-5.0656,4.0930,8.0624,16.4339,3.4125,6.3765,6.2052,-20.5875,2.6834,-2.7876,5.3644,8.2095,11.5012,7.2154,12.7038,5.4394,-7.3143,4.9018
2750.0000,4.7246,-4.4209,3.6957,8.8017,15.6963,4.4263,5.3419,8.0858,-19.4955,2.4408,-3.3187,5.6646,8.0067,11.8314,6.2904,12.2618,5.7313,-6.5522,5.0846
2753.9062,5.9492,-3.4885,3.5622,9.6082,15.3183,6.0599,4.3587,9.8582,-17.9872,2.2464,-3.5199,6.3864,8.1131,12.9911,5.5393,11.4626,6.9181,-5.5613,5.2052
2757.8125,7.6503,-2.3627,3.6479,9.9604,15.0193,7.6146,3.6978,10.6182,-16.1427,2.3514,-3.0650,7.2430,8.4057,14.2665,5.1722,10.5751,8.4648,-4.4084,4.9953
2761.7188,9.1371,-1.3031,3.6791,9.5114,14.4767,8.4877,3.2320,9.9078,-14.2422,2.8589,-1.9269,7.9238,8.6881,15.0825,5.2767,9.9782,9.8342,-3.2336,4.4090
2765.6250,9.8825,-0.6159,3.3912,8.2889,13.5538,8.3911,2.6625,7.9883,-12.6516,3.6174,-0.4665,8.1879,8.8126,15.2517,5.7288,9.8488,10.6967,-2.2276,3.6542
2769.5312,9.7146,-0.5008,2.7329,6.6616,12.3644,7.3930,1.8368,5.6892,-11.6494,4.2429,0.6897,7.9082,8.7469,14.9249,6.2054,9.9866,10.9844,-1.5939,3.0349
2773.4375,8.7951,-0.9671,1.8678,5.0794,11.1193,5.8006,0.8802,3.9002,-11.3079,4.2762,0.9320,7.0708,8.5252,14.3217,6.3048,9.9162,10.7935,-1.5083,2.7076
2777.3438,7.4315,-1.8598,0.9892,3.7647,9.8771,3.9873,0.0505,3.0269,-11.4958,3.4123,-0.0335,5.7532,8.1294,13.4694,5.7167,9.1988,10.2289,-2.0770,2.5273
2781.2500,5.8769,-2.9406,0.1341,2.5832,8.4157,2.2717,-0.5295,2.7715,-11.9690,1.6872,-2.0204,4.1081,7.4167,12.1575,4.3613,7.7323,9.3077,-3.2786,2.1119
2785.1562,4.2571,-3.9449,-0.8117,1.2065,6.3682,0.8905,-0.9972,2.3980,-12.4648,-0.4834,-4.4105,2.3586,6.1844,10.1384,2.4387,5.8360,7.9837,-4.9038,1.1062
2789.0625,2.6498,-4.5923,-1.9051,-0.5396,3.5597,0.0239,-1.5952,1.3068,-12.7415,-2.4569,-6.3992,0.7799,4.3469,7.4124,0.3691,4.0708,6.2573,-6.5411,-0.5230
2792.9688,1.2060,-4.6079,-2.9248,-2.4049,0.3040,-0.2021,-2.3568,-0.4776,-12.5827,-3.6481,-7.3332,-0.3586,2.0895,4.3653,-1.3565,2.9204,4.2701,-7.6657,-2.3728
2796.8750,0.1737,-3.8197,-3.3818,-3.7507,-2.5942,0.2281,-2.9166,-2.2521,-11.8271,-3.8059,-6.9985,-0.8969,-0.1480,1.6300,-2.3669,2.5326,2.2891,-7.8387,-3.7789
2800.7812,-0.2263,-2.3143,-2.8309,-3.9133,-4.2002,1.1497,-2.6596,-3.0669,-10.4524,-3.1298,-5.7266,-0.8867,-1.8838,-0.2484,-2.5724,2.6588,0.5757,-6.9321,-4.1915
2804.6875,0.0187,-0.5261,-1.2813,-2.6661,-3.9811,2.2158,-1.1596,-2.3599,-8.6564,-2.1568,-4.2511,-0.6160,-2.8724,-1.1195,-2.2180,2.8013,-0.7734,-5.2429,-3.5152
2808.5938,0.6336,0.8751,0.6302,-0.4580,-2.1671,3.0113,1.4024,-0.3639,-6.8356,-1.4756,-3.3592,-0.5012,-3.2439,-1.2883,-1.7805,2.4701,-1.8842,-3.3885,-2.1854
2812.5000,1.1702,1.3093,1.9143,1.7637,0.3116,3.2382,4.1750,1.9861,-5.4148,-1.4298,-3.4911,-0.8700,-3.3843,-1.2810,-1.7339,1.4168,-2.9962,-2.0072,-0.9171
2816.4062,1.2535,0.6492,1.8304,3.0573,2.3034,2.8553,6.0353,3.5846,-4.6049,-1.9764,-4.4988,-1.7481,-3.6278,-1.4692,-2.2953,-0.2521,-4.2414,-1.4233,-0.2809
2820.3125,0.7881,-0.6387,0.4115,3.0028,3.0481,2.0710,6.2236,3.7735,-4.2576,-2.7729,-5.7159,-2.7952,-3.9865,-1.8059,-3.2997,-2.1200,-5.4644,-1.4865,-0.3793
2824.2188,-0.0305,-1.7276,-1.4867,1.9002,2.5502,1.1845,4.7964,2.6552,-3.9530,-3.4234,-6.3325,-3.4646,-4.1300,-1.8544,-4.2979,-3.6470,-6.2321,-1.6996,-0.8311
2828.1250,-0.9037,-1.9365,-2.7063,0.5304,1.4910,0.3868,2.5894,0.9345,-3.2985,-3.7216,-5.8806,-3.3278,-3.6553,-1.1021,-4.8378,-4.4283,-6.0661,-1.5671,-1.0653
2832.0312,-1.6669,-1.1867,-2.5549,-0.3527,0.7484,-0.3355,0.7064,-0.5647,-2.2471,-3.7418,-4.5453,-2.3757,-2.4594,0.6352,-4.7609,-4.4140,-4.7745,-0.9401,-0.7226
2835.9375,-2.3857,-0.0829,-1.2949,-0.4646,0.8285,-1.1208,-0.1322,-1.3655,-1.1943,-3.7352,-3.0948,-1.0952,-0.9342,2.9708,-4.3145,-3.9668,-2.6692,-0.1274,0.1019
2839.8438,-3.2353,0.4723,0.0058,-0.0961,1.5576,-2.0414,0.0382,-1.5081,-0.7453,-3.9191,-2.4441,-0.2388,0.1889,5.0288,-3.9913,-3.6915,-0.5034,0.3082,0.9308
2843.7500,-4.2636,-0.1058,0.1879,0.1524,2.2049,-2.9539,0.5517,-1.3734,-1.2755,-4.3058,-3.0993,-0.3958,0.2741,5.8229,-4.1903,-4.0906,0.8679,-0.0564,1.2318
2847.6562,-5.2355,-1.6468,-1.1946,-0.1959,1.9447,-3.5207,0.6140,-1.3462,-2.5748,-4.6797,-4.8143,-1.6138,-0.7876,4.7431,-4.9211,-5.2282,0.9243,-1.1770,0.7820
2851.5625,-5.7049,-3.2734,-3.5267,-1.1779,0.3757,-3.4057,-0.1714,-1.5665,-3.8387,-4.7231,-6.6751,-3.3096,-2.4457,1.9006,-5.7582,-6.6231,-0.2432,-2.4933,-0.1647
2855.4688,-5.2803,-3.9175,-5.4828,-2.3704,-2.2010,-2.5149,-1.5934,-1.9057,-4.0508,-4.1978,-7.5665,-4.5434,-3.7634,-1.8481,-6.0852,-7.4817,-1.9831,-3.1921,-1.0039
2859.3750,-3.9029,-2.9705,-5.8436,-3.1406,-4.8928,-1.1122,-3.0385,-2.1125,-2.5434,-3.0671,-6.7490,-4.5110,-3.9330,-5.2185,-5.4747,-7.1725,-3.4318,-2.6237,-1.1132
2863.2812,-1.9368,-0.6535,-4.2412,-2.9859,-6.6407,0.2786,-3.9271,-1.9733,0.6057,-1.5015,-4.2185,-2.9763,-2.7132,-7.0164,-3.9579,-5.6623,-3.9539,-0.6290,-0.1875
2867.1875,-0.0036,2.1174,-1.3554,-1.7693,-6.7283,1.1282,-4.0704,-1.3723,4.5820,0.2066,-0.6715,-0.4017,-0.5266,-6.6255,-2.0155,-3.6227,-3.4194,2.3899,1.6072
2871.0938,1.3281,4.2602,1.5353,0.2470,-5.1103,1.1548,-3.7203,-0.2615,8.2413,1.7443,2.8654,2.2850,1.8158,-4.2478,-0.3108,-2.1065,-2.1792,5.6629,3.7283
2875.0000,1.7961,5.1062,3.3269,2.5365,-2.4055,0.4305,-3.3169,1.3629,10.6681,2.8428,5.5004,4.1392,3.5631,-0.7937,0.6528,-1.9654,-0.7942,8.3754,5.5243
2878.9062,1.4972,4.6886,3.6817,4.5136,0.4231,-0.6991,-3.1372,3.4073,11.5684,3.3035,6.7915,4.6134,4.3612,2.5155,0.7387,-3.3609,0.2827,9.9533,6.5237
2882.8125,0.7410,3.6183,3.0974,5.7197,2.5214,-1.8055,-3.0917,5.5921,11.3064,3.0244,6.7977,3.7341,4.3001,4.6429,0.1532,-5.6662,0.8726,10.2091,6.6070
2886.7188,-0.1622,2.6815,2.4729,5.9454,3.4920,-2.5556,-2.7996,7.4434,10.6157,2.0516,5.9218,1.9973,3.7075,5.0988,-0.7429,-7.8173,1.0171,9.3424,6.0000
2890.6250,-1.0368,2.4262,2.5049,5.2769,3.4640,-2.7970,-1.8793,8.4482,10.1911,0.6306,4.6875,0.0895,2.8775,4.0203,-1.6339,-8.8883,0.8011,7.8454,5.1210
2894.5312,-1.8412,2.9527,3.3055,4.0592,2.8795,-2.5527,-0.2577,8.3213,10.3899,-0.8095,3.5672,-1.3938,1.9296,1.9747,-2.3360,-8.5466,0.2261,6.3595,4.3715
2898.4375,-2.5855,3.9591,4.4418,2.7760,2.1498,-1.9747,1.6999,7.2103,11.1654,-1.7847,2.8955,-2.1112,0.8650,-0.3665,-2.7620,-7.1418,-0.7549,5.5033,3.9746
2902.3438,-3.2621,4.9552,5.3044,1.8728,1.4118,-1.2963,3.3234,5.6699,12.2025,-1.9699,2.8385,-1.9957,-0.2724,-2.4871,-2.8467,-5.4280,-2.0757,5.6880,3.9312
2906.2500,-3.8451,5.5082,5.5259,1.5925,0.5362,-0.7821,3.9603,4.3808,13.1337,-1.3897,3.3846,-1.1832,-1.2841,-4.0981,-2.5224,-4.1268,-3.4182,6.9690,4.1007
2910.1562,-4.3344,5.4198,5.1828,1.9060,-0.6339,-0.6535,3.3104,3.7735,13.7065,-0.4595,4.3586,0.0833,-1.8554,-5.0453,-1.7663,-3.5925,-4.2496,9.0050,4.3491
2914.0625,-4.7833,4.7910,4.6889,2.5784,-2.0054,-0.9988,1.5903,3.8035,13.8430,0.1856,5.4744,1.5366,-1.7191,-5.1888,-0.6683,-3.7261,-4.0600,11.1794,4.6651
2917.9688,-5.2753,3.9659,4.4856,3.3281,-3.1473,-1.7160,-0.5553,4.0310,13.6015,0.0053,6.4246,2.9475,-0.8267,-4.3950,0.5510,-4.1181,-2.6730,12.8529,5.1629
2921.8750,-5.8657,3.3669,4.7416,3.9737,-3.4953,-2.5498,-2.3472,3.9502,13.0954,-1.1508,6.9692,4.1649,0.5876,-2.6718,1.5985,-4.2921,-0.4275,13.6351,5.9574
2925.7812,-6.5398,3.2743,5.2410,4.4740,-2.7415,-3.2261,-3.2152,3.3361,12.4269,-2.9383,6.9800,5.1222,2.0903,-0.3448,2.2094,-3.9199,1.9087,13.5295,6.9913
2929.6875,-7.2144,3.6491,5.5140,4.8456,-1.1440,-3.6107,-3.0210,2.3658,11.6680,-4.6735,6.4351,5.8004,3.2200,1.8945,2.2352,-2.9433,3.4654,12.8728,7.9432
2933.5938,-7.7681,4.1170,5.1270,5.0407,0.4787,-3.7808,-2.0609,1.4388,10.8901,-5.6668,5.4015,6.1663,3.6494,3.1687,1.6840,-1.5939,3.6638,12.1072,8.3153
2937.5000,-8.0651,4.1637,3.9613,4.8964,1.1128,-3.9461,-0.8745,0.8368,10.2112,-5.5511,4.0441,6.1310,3.2644,2.7740,0.7185,-0.3169,2.4583,11.5243,7.6829
2941.4062,-7.9636,3.4584,2.3183,4.2104,0.0776,-4.2644,0.0189,0.4864,9.8088,-4.4257,2.6543,5.5741,2.1502,0.5319,-0.3759,0.3914,0.3081,11.1273,5.9670
2945.3125,-7.3375,2.1103,0.7752,2.8923,-2.5970,-4.6854,0.3107,0.0056,9.8634,-2.7527,1.6329,4.4351,0.5219,-3.0705,-1.2531,0.1961,-2.0817,10.6781,3.5437
2949.2188,-6.1423,0.6682,-0.1464,1.0747,-6.1684,-4.9483,-0.0561,-0.9922,10.4404,-1.0865,1.3672,2.8131,-1.3496,-7.0470,-1.6119,-0.9022,-4.0856,9.8764,1.0888
2953.1250,-4.5115,-0.1770,-0.3182,-0.9105,-9.5498,-4.7535,-0.9670,-2.5580,11.3792,0.1935,2.0225,0.9923,-3.1937,-10.3089,-1.3293,-2.5390,-5.3708,8.5513,-0.7780
2957.0312,-2.8070,-0.0230,-0.1381,-2.6856,-11.8223,-3.9985,-2.2433,-4.2867,12.2837,1.0003,3.3719,-0.6515,-4.7748,-12.0915,-0.5573,-4.1527,-5.9163,6.7524,-1.8365
2960.9375,-1.5432,0.9565,-0.3417,-4.0116,-12.6041,-2.9114,-3.6941,-5.5192,12.6633,1.4679,4.8122,-1.8229,-5.9180,-12.2081,0.3008,-5.2758,-5.8803,4.7102,-2.3759
2964.8438,-1.1779,2.0708,-1.5639,-4.8833,-12.1061,-1.9778,-5.1028,-5.7462,12.1752,1.7732,5.6190,-2.4568,-6.5305,-11.0370,0.7667,-5.7786,-5.4371,2.7106,-2.9847
2968.7500,-1.8738,2.4949,-3.9027,-5.4824,-10.9090,-1.6956,-6.2141,-4.9432,10.8246,1.9830,5.3205,-2.7443,-6.6166,-9.2846,0.5428,-5.9028,-4.6907,0.9678,-4.1491
2972.6562,-3.3849,1.7390,-6.7706,-6.0342,-9.6392,-2.3097,-6.7839,-3.6118,8.9799,2.0253,3.9583,-3.0145,-6.2796,-7.6641,-0.3107,-6.0566,-3.6973,-0.4454,-5.9186
2976.5625,-5.1631,-0.0887,-9.1724,-6.6699,-8.7263,-3.6852,-6.6935,-2.4934,7.1650,1.7806,2.0473,-3.5428,-5.7062,-6.6332,-1.4107,-6.5097,-2.5453,-1.5905,-7.8600
2980.4688,-6.6334,-2.3744,-10.2706,-7.3748,-8.3186,-5.3842,-6.0489,-2.1420,5.7525,1.2162,0.2507,-4.4026,-5.1293,-6.2806,-2.2943,-7.2007,-1.4094,-2.6018,-9.3306
2984.3750,-7.4607,-4.3541,-9.8954,-8.0278,-8.3248,-6.8797,-5.1686,-2.6273,4.7716,0.4636,-1.0091,-5.4390,-4.7673,-6.3727,-2.7135,-7.7864,-0.5280,-3.6012,-9.8836
2988.2812,-7.6333,-5.4856,-8.6526,-8.4824,-8.5047,-7.7701,-4.4381,-3.5509,3.9792,-0.2068,-1.7231,-6.3591,-4.7489,-6.5187,-2.7632,-7.8802,-0.1107,-4.6192,-9.5329
2992.1875,-7.3217,-5.6177,-7.5360,-8.6306,-8.5694,-7.8863,-4.1129,-4.3467,3.1540,-0.4922,-2.1306,-6.8654,-5.0510,-6.3792,-2.7426,-7.2966,-0.2369,-5.5537,-8.7041
2996.0938,-6.6472,-4.9148,-7.2815,-8.4306,-8.2897,-7.2781,-4.2084,-4.6558,2.3896,-0.1797,-2.3604,-6.7534,-5.4912,-5.8375,-2.8465,-6.1292,-0.8109,-6.1911,-7.9193
